Temperature log
time (s) Temperature (°C)
  2.31        32.50
  2.86        32.50
  3.39        32.50
  3.79        32.50
  4.33        32.50
  4.88        32.50
  5.28        32.50
  5.83        32.50
  6.37        32.50
  6.90        32.50
  7.31        32.50
  7.85        32.50
  8.40        32.50
  8.80        32.50
  9.34        32.50
  9.88        32.50
 10.28        32.50
 10.83        32.50
 11.37        32.50
 11.91        32.50
 12.31        32.50
 12.86        32.50
 13.40        32.50
 13.80        32.50
 14.34        32.50
 14.89        32.50
 15.29        32.50
 15.84        32.50
 16.38        32.50
 16.79        32.50
 17.31        32.50
 17.86        32.50
 18.41        32.50
 18.81        32.50
 19.35        32.50
 19.90        32.50
 20.30        32.50
 20.84        32.00
 21.38        32.50
 21.80        32.50
 22.34        32.50
 22.88        32.50
 23.28        32.50
 23.82        32.50
 24.36        32.50
 24.76        32.50
 25.31        32.50
 25.85        32.50
 26.40        32.50
 26.80        32.50
 27.34        32.50
 27.89        32.50
 28.29        32.00
 28.83        32.00
 29.37        32.00
 29.77        32.00
 30.32        32.00
 30.86        32.00
 31.28        32.00
 31.82        32.00
 32.36        32.00
 32.90        32.00
 33.30        32.00
 33.84        32.00
 34.38        32.00
 34.78        32.00
 35.33        32.00
 35.87        32.00
 36.27        32.00
 36.82        32.00
 37.36        32.00
 37.77        32.00
 38.31        32.00
 38.86        32.00
 39.38        32.00
 39.80        32.00
 40.34        32.00
 40.89        32.00
 41.29        32.00
 41.83        32.00
 42.38        32.00
 42.78        32.00
 43.32        32.00
 43.87        32.00
 44.27        32.00
 44.82        32.00
 45.36        32.00
 45.90        32.00
 46.30        32.00
 46.84        32.00
 47.38        32.00
 47.78        32.00
 48.33        32.00
 48.87        32.00
 49.27        32.00
 49.82        32.00
 50.36        32.00
 50.78        32.00
 51.32        32.00
 51.85        32.00
 52.39        32.00
 52.79        32.00
 53.34        32.00
 53.88        32.00
 54.28        32.00
 54.83        32.00
 55.38        32.00
 55.78        32.00
 56.32        32.00
 56.86        32.00
 57.26        32.00
 57.80        32.00
 58.35        32.00
 58.90        32.00
 59.30        32.00
 59.84        32.00
 60.38        32.00
 60.78        32.00
 61.33        32.00
 61.86        32.00
 62.28        32.00
 62.83        32.00
 63.37        32.00
 63.78        32.00
 64.33        32.00
 64.87        32.00
 65.27        32.00
 65.81        32.00
 66.36        32.00
 66.75        32.00
 67.30        32.00
 67.84        32.00
 68.37        32.00
 68.79        32.00
 69.34        32.00
 69.88        32.00
 70.28        32.00
 70.82        32.00
 71.36        32.00
 71.76        32.00
 72.31        32.00
 72.85        32.00
 73.25        32.00
 73.80        32.00
 74.34        32.00
 74.88        32.00
 75.30        32.00
 75.84        32.00
 76.38        32.00
 76.78        32.00
 77.32        32.00
 77.86        32.00
 78.26        32.00
 78.81        32.00
 79.35        32.00
 79.76        32.00
 80.31        32.00
 80.85        32.00
 81.38        32.00
 81.78        32.00
 82.32        32.00
 82.87        32.00
 83.28        32.00
 83.82        32.00
 84.36        32.00
 84.77        32.00
 85.31        32.00
 85.86        32.00
 86.25        32.00
 86.80        32.00
 87.34        32.00
 87.88        32.00
 88.29        32.00
 88.82        32.00
 89.38        32.00
 89.77        32.00
 90.32        32.00
 90.86        32.00
 91.27        32.00
 91.81        32.00
 92.36        32.00
 92.76        32.00
 93.30        32.00
 93.84        32.00
 94.38        32.00
 94.79        32.00
 95.33        32.00
 95.88        32.00
 96.28        32.00
 96.82        32.00
 97.37        32.00
 97.77        32.00
 98.32        32.00
 98.85        32.00
 99.25        32.00
 99.80        32.00
100.34        32.00
100.74        32.00
101.29        32.00
101.83        32.00
102.38        32.00
102.78        32.00
103.31        32.00
103.86        32.00
104.26        32.00
104.80        32.00
105.35        32.00
105.75        32.00
106.29        32.00
106.84        32.00
107.26        32.00
107.80        32.00
108.34        32.00
108.86        32.00
109.28        32.00
109.81        32.00
110.36        32.00
110.78        32.00
111.31        32.00
111.86        32.00
112.25        32.00
112.80        32.00
113.34        32.00
113.74        32.00
114.29        32.00
114.82        32.00
115.36        32.00
115.78        32.00
116.31        32.00
116.86        32.00
117.28        32.00
117.82        32.00
118.34        32.00
118.76        32.00
119.31        32.00
119.83        32.00
120.24        32.00
120.78        32.00
121.32        32.00
121.89        32.00
122.29        32.00
122.84        32.00
123.38        32.00
123.78        32.00
124.33        32.00
124.87        32.00
125.27        32.00
125.82        32.00
126.36        32.00
126.76        32.00
127.30        32.00
127.85        32.00
128.25        32.00
128.79        32.00
129.33        32.00
129.73        32.00
130.28        32.00
130.82        32.00
131.36        32.00
131.78        32.00
132.31        32.00
132.85        32.00
133.27        32.00
133.80        32.00
134.35        32.50
134.75        32.00
135.29        32.00
135.84        32.50
136.23        32.00
136.78        32.50
137.32        32.00
137.85        32.00
138.28        32.50
138.82        32.50
139.36        32.00
139.76        32.50
140.30        32.50
140.85        32.50
141.25        32.50
141.79        32.50
142.33        32.50
142.75        32.50
143.29        32.50
143.83        32.50
144.37        32.50
144.76        32.50
145.30        32.50
145.85        32.50
146.25        32.50
146.79        32.50
147.34        32.50
147.74        32.50
148.29        32.50
148.83        32.50
149.25        32.50
149.79        32.50
150.31        32.50
150.85        32.50
151.28        32.50
151.81        32.50
152.35        32.50
152.75        32.50
153.30        32.50
153.85        32.50
154.25        32.50
154.79        32.50
155.33        32.50
155.73        32.50
156.28        32.50
156.82        32.50
157.36        32.50
157.76        32.50
158.31        32.50
158.85        32.50
159.25        32.50
159.80        32.50
160.33        32.50
160.75        32.50
161.28        32.50
161.83        32.50
162.23        32.50
162.77        32.50
163.32        32.50
163.86        32.50
164.27        32.50
164.81        32.50
165.35        32.50
165.76        32.50
166.31        32.50
166.85        32.50
167.24        32.50
167.79        32.50
168.33        32.50
168.74        32.50
169.28        32.50
169.82        32.50
170.36        32.50
170.77        32.50
171.31        32.50
171.85        32.50
172.25        32.50
172.80        32.50
173.35        32.50
173.75        32.50
174.29        32.50
174.83        32.50
175.23        32.50
175.77        32.50
176.32        32.50
176.72        32.50
177.27        32.50
177.81        32.50
178.35        32.50
178.75        32.50
179.30        32.50
179.84        32.50
180.24        33.00
180.79        32.50
181.33        33.00
181.73        32.50
182.30        32.50
182.82        33.00
183.24        33.00
183.77        33.00
184.33        33.00
184.73        33.00
185.27        33.00
185.81        33.00
186.36        33.00
186.76        33.00
187.30        33.00
187.85        33.00
188.25        33.00
188.79        33.00
189.33        33.00
189.73        33.00
190.28        33.00
190.82        33.00
191.22        33.00
191.77        33.00
192.31        33.00
192.85        33.00
193.25        33.00
193.80        33.00
194.35        33.00
194.75        33.00
195.29        33.00
195.83        33.00
196.23        33.00
196.77        33.00
197.32        33.00
197.72        33.00
198.27        33.00
198.82        33.00
199.36        33.00
199.76        33.00
200.30        33.00
200.85        33.00
201.24        33.00
201.79        33.00
202.33        33.00
202.75        33.00
203.27        33.00
203.81        33.00
204.23        33.00
204.78        33.00
205.32        33.00
205.71        33.00
206.26        33.00
206.80        33.00
207.35        33.00
207.75        33.00
208.29        33.00
208.82        33.00
209.24        33.00
209.78        33.00
210.33        33.00
210.73        33.50
211.27        33.50
211.81        33.50
212.21        33.50
212.76        33.50
213.31        33.50
213.85        33.50
214.25        33.50
214.79        33.50
215.34        33.50
215.73        33.50
216.27        33.50
216.82        33.50
217.22        33.50
217.76        33.50
218.31        33.50
218.72        33.50
219.26        33.50
219.79        33.50
220.33        33.50
220.76        33.50
221.28        33.50
221.82        33.50
222.23        33.50
222.77        33.50
223.32        33.50
223.73        33.50
224.27        33.50
224.81        33.50
225.21        33.50
225.75        33.50
226.29        33.50
226.84        33.50
227.24        33.50
227.79        33.50
228.33        33.50
228.73        33.50
229.28        33.50
229.82        33.50
230.22        33.50
230.76        33.50
231.30        34.00
231.72        34.00
232.26        34.00
232.80        34.00
233.35        34.00
233.74        34.00
234.29        34.00
234.83        34.00
235.24        34.00
235.77        34.00
236.32        34.00
236.72        34.00
237.27        34.00
237.81        34.00
238.21        34.00
238.76        34.00
239.30        34.00
239.83        34.00
240.24        34.00
240.79        34.00
241.33        34.00
241.73        34.00
242.29        34.00
242.83        34.00
243.24        34.00
243.78        34.00
244.32        34.00
244.72        34.00
245.26        34.00
245.81        34.00
246.21        34.00
246.75        34.00
247.29        34.00
247.71        34.00
248.25        34.00
248.80        34.00
249.34        34.00
249.74        34.00
250.27        34.50
250.82        34.50
251.22        34.00
251.78        34.50
252.31        34.50
252.71        34.50
253.25        34.50
253.80        34.50
254.21        34.50
254.74        34.50
255.28        34.50
255.83        34.50
256.25        34.50
256.78        34.50
257.32        34.50
257.72        34.50
258.27        34.50
258.82        34.50
259.22        34.50
259.76        34.50
260.30        34.50
260.70        34.50
261.25        34.50
261.79        34.50
262.33        34.50
262.74        34.50
263.28        34.50
263.82        34.50
264.23        34.50
264.77        34.50
265.31        34.50
265.71        34.50
266.25        34.50
266.80        35.00
267.21        35.00
267.75        35.00
268.29        35.00
268.83        35.00
269.24        35.00
269.78        35.00
270.33        35.00
270.71        35.00
271.27        35.00
271.81        35.00
272.21        35.00
272.76        35.00
273.29        35.00
273.70        35.00
274.25        35.00
274.79        35.00
275.32        35.00
275.73        35.00
276.28        35.00
276.82        35.00
277.21        35.00
277.76        35.00
278.31        35.00
278.71        35.00
279.26        35.00
279.79        35.00
280.20        35.00
280.74        35.00
281.29        35.00
281.82        35.50
282.24        35.50
282.78        35.50
283.31        35.50
283.72        35.50
284.26        35.50
284.81        35.50
285.22        35.50
285.76        35.50
286.29        35.50
286.69        35.50
287.25        35.50
287.79        35.50
288.20        35.50
288.73        35.50
289.27        35.50
289.81        35.50
290.21        35.50
290.75        35.50
291.30        35.50
291.72        35.50
292.25        35.50
292.79        35.50
293.21        35.50
293.75        35.50
294.29        35.50
294.70        35.50
295.23        35.50
295.78        35.50
296.32        36.00
296.72        36.00
297.26        36.00
297.81        36.00
298.21        36.00
298.75        36.00
299.29        36.00
299.71        36.00
300.24        36.00
300.78        36.00
301.20        36.00
301.73        36.00
302.29        36.00
302.69        36.00
303.24        36.00
303.78        36.00
304.32        36.00
304.73        36.00
305.26        36.00
305.81        36.00
306.21        36.00
306.76        36.00
307.30        36.00
307.71        36.00
308.24        36.00
308.79        36.00
309.19        36.00
309.74        36.00
310.27        36.00
310.68        36.00
311.21        36.00
311.78        36.50
312.30        36.50
312.72        36.50
313.26        36.50
313.79        36.50
314.21        36.50
314.75        36.50
315.29        36.50
315.70        36.50
316.23        36.50
316.79        36.50
317.18        36.50
317.72        36.50
318.26        36.50
318.81        36.50
319.21        36.50
319.75        36.50
320.29        36.50
320.71        36.50
321.25        36.50
321.79        36.50
322.18        36.50
322.73        36.50
323.28        36.50
323.68        36.50
324.23        37.00
324.76        37.00
325.30        37.00
325.72        37.00
326.25        37.00
326.80        37.00
327.20        37.00
327.74        37.00
328.29        37.00
328.68        37.00
329.23        37.00
329.77        37.00
330.18        37.00
330.72        37.00
331.26        37.00
331.81        37.00
332.21        37.00
332.75        37.00
333.29        37.00
333.69        37.00
334.24        37.00
334.79        37.00
335.19        37.00
335.73        37.00
336.28        37.00
336.68        37.00
337.22        37.00
337.76        37.00
338.30        37.50
338.71        37.50
339.26        37.50
339.80        37.50
340.19        37.50
340.74        37.50
341.29        37.50
341.68        37.50
342.22        37.50
342.77        37.50
343.19        37.50
343.71        37.50
344.26        37.50
344.81        37.50
345.22        37.50
345.75        37.50
346.30        37.50
346.70        37.50
347.24        37.50
347.78        37.50
348.18        37.50
348.73        37.50
349.27        37.50
349.68        37.50
350.22        37.50
350.76        37.50
351.30        38.00
351.71        37.50
352.26        38.00
352.79        38.00
353.20        38.00
353.74        38.00
354.29        38.00
354.70        38.00
355.24        38.00
355.77        38.00
356.17        38.00
356.71        38.00
357.26        38.00
357.81        38.00
358.21        38.00
358.76        38.00
359.29        38.00
359.70        38.00
360.24        38.00
360.78        38.00
361.20        38.00
361.73        38.00
362.29        38.00
362.70        38.00
363.23        38.00
363.78        38.00
364.18        38.00
364.72        38.00
365.27        38.50
365.67        38.50
366.21        38.50
366.76        38.50
367.29        38.50
367.71        38.50
368.25        38.50
368.78        38.50
369.20        38.50
369.73        38.50
370.28        38.50
370.67        38.50
371.22        38.50
371.76        38.50
372.17        38.50
372.70        38.50
373.26        38.50
373.80        38.50
374.20        38.50
374.74        38.50
375.29        38.50
375.69        38.50
376.23        38.50
376.78        38.50
377.18        38.50
377.72        38.50
378.26        38.50
378.66        38.50
379.22        38.50
379.75        38.50
380.29        38.50
380.70        38.50
381.25        38.50
381.79        38.50
382.20        38.50
382.73        38.50
383.27        38.50
383.68        39.00
384.23        39.00
384.77        39.00
385.17        39.00
385.71        39.00
386.25        39.00
386.79        39.00
387.20        39.00
387.74        39.00
388.29        39.00
388.68        39.00
389.24        39.00
389.77        39.00
390.18        39.00
390.73        39.00
391.27        39.00
391.67        39.00
392.21        39.00
392.75        39.00
393.15        39.00
393.70        39.00
394.24        39.00
394.79        39.50
395.19        39.50
395.73        39.50
396.27        39.50
396.67        39.50
397.22        39.50
397.76        39.50
398.16        39.50
398.71        39.50
399.25        39.50
399.66        39.50
400.20        39.50
400.74        39.50
401.29        39.50
401.69        39.50
402.24        39.50
402.78        39.50
403.17        39.50
403.72        39.50
404.27        39.50
404.67        40.00
405.21        40.00
405.75        40.00
406.16        40.00
406.69        40.00
407.23        40.00
407.78        40.00
408.18        40.00
408.73        40.00
409.27        40.00
409.67        40.00
410.22        40.00
410.76        40.00
411.18        40.00
411.72        40.00
412.25        40.00
412.65        40.00
413.19        40.00
413.74        40.00
414.29        40.00
414.69        40.00
415.23        40.00
415.77        40.50
416.18        40.50
416.72        40.50
417.27        40.50
417.66        40.50
418.21        40.50
418.75        40.50
419.17        40.50
419.69        40.50
420.23        40.50
420.77        40.50
421.18        40.50
421.73        40.50
422.15        40.50
422.69        40.50
423.24        40.50
423.78        40.50
424.19        40.50
424.73        40.50
425.27        40.50
425.67        40.50
426.21        40.50
426.76        41.00
427.16        41.00
427.70        41.00
428.25        41.00
428.65        41.00
429.19        41.00
429.73        41.00
430.28        41.00
430.67        41.00
431.22        41.00
431.77        41.00
432.17        41.00
432.71        41.00
433.25        41.00
433.65        41.00
434.20        41.00
434.74        41.00
435.14        41.00
435.68        41.00
436.23        41.00
436.77        41.00
437.18        41.50
437.73        41.50
438.27        41.50
438.66        41.50
439.21        41.50
439.75        41.50
440.16        41.50
440.70        41.50
441.25        41.50
441.65        41.50
442.20        41.50
442.72        41.50
443.27        41.50
443.69        41.50
444.23        41.50
444.77        41.50
445.17        41.50
445.70        41.50
446.25        41.50
446.67        41.50
447.19        41.50
447.74        41.50
448.16        42.00
448.70        42.00
449.24        42.00
449.78        42.00
450.18        42.00
450.72        42.00
451.27        42.00
451.68        42.00
452.22        42.00
452.76        42.00
453.15        42.00
453.70        42.00
454.24        42.00
454.64        42.00
455.19        42.00
455.73        42.00
456.27        42.00
456.67        42.00
457.21        42.00
457.75        42.50
458.18        42.00
458.71        42.00
459.26        42.50
459.66        42.50
460.20        42.50
460.73        42.50
461.15        42.50
461.70        42.50
462.24        42.50
462.78        42.50
463.17        42.50
463.71        42.50
464.26        42.50
464.67        42.50
465.20        42.50
465.75        42.50
466.15        42.50
466.69        42.50
467.24        42.50
467.64        43.00
468.18        43.00
468.72        42.50
469.15        43.00
469.67        43.00
470.21        43.00
470.75        43.00
471.16        43.00
471.70        43.00
472.24        43.00
472.67        43.00
473.20        43.00
473.74        43.00
474.14        43.00
474.68        43.00
475.23        43.00
475.64        43.00
476.18        43.00
476.72        43.00
477.27        43.00
477.66        43.00
478.21        43.50
478.75        43.00
479.15        43.50
479.70        43.00
480.24        43.50
480.64        43.50
481.19        43.50
481.73        43.50
482.14        43.50
482.69        43.50
483.24        43.50
483.64        43.50
484.19        43.50
484.73        43.50
485.27        43.50
485.66        43.50
486.21        43.50
486.75        43.50
487.15        43.50
487.69        44.00
488.23        43.50
488.65        44.00
489.19        44.00
489.73        44.00
490.13        44.00
490.68        44.00
491.22        44.00
491.77        44.00
492.17        44.00
492.72        44.00
493.26        44.00
493.65        44.00
494.20        44.00
494.75        44.00
495.14        44.00
495.69        44.00
496.23        44.00
496.63        44.00
497.18        44.50
497.72        44.50
498.14        44.50
498.68        44.50
499.20        44.50
499.74        44.50
500.16        44.50
500.70        44.50
501.24        44.50
501.65        44.50
502.19        44.50
502.74        44.50
503.13        44.50
503.67        44.50
504.22        44.50
504.62        44.50
505.17        44.50
505.70        44.50
506.25        44.50
506.65        45.00
507.19        45.00
507.73        45.00
508.14        45.00
508.68        45.00
509.23        45.00
509.63        45.00
510.17        45.00
510.72        45.00
511.13        45.00
511.67        45.00
512.21        45.00
512.76        45.00
513.15        45.00
513.71        45.00
514.24        45.00
514.64        45.00
515.18        45.50
515.73        45.50
516.13        45.50
516.67        45.50
517.21        45.50
517.63        45.50
518.17        45.50
518.72        45.50
519.26        45.50
519.66        45.50
520.20        45.50
520.75        45.50
521.14        45.50
521.68        45.50
522.22        45.50
522.64        45.50
523.18        45.50
523.72        45.50
524.12        46.00
524.67        46.00
525.21        46.00
525.76        46.00
526.16        46.00
526.71        46.00
527.25        46.00
527.64        46.00
528.19        46.00
528.73        46.00
529.14        46.00
529.68        46.00
530.23        46.00
530.62        46.00
531.16        46.00
531.71        46.00
532.25        46.00
532.67        46.00
533.20        46.50
533.74        46.50
534.14        46.50
534.68        46.50
535.23        46.50
535.62        46.50
536.17        46.50
536.72        46.50
537.12        46.50
537.66        46.50
538.20        46.50
538.75        46.50
539.15        46.50
539.70        46.50
540.24        46.50
540.64        46.50
541.18        46.50
541.73        47.00
542.15        47.00
542.68        47.00
543.23        47.00
543.63        47.00
544.17        47.00
544.71        47.00
545.14        47.00
545.67        47.00
546.21        47.00
546.61        47.00
547.16        47.00
547.70        47.00
548.24        47.00
548.64        47.00
549.20        47.00
549.73        47.00
550.14        47.00
550.68        47.00
551.22        47.50
551.64        47.50
552.16        47.50
552.71        47.50
553.12        47.50
553.66        47.50
554.20        47.50
554.74        47.50
555.15        47.50
555.68        47.50
556.23        47.50
556.63        47.50
557.18        47.50
557.71        47.50
558.14        47.50
558.67        47.50
559.21        48.00
559.61        48.00
560.16        48.00
560.70        48.00
561.24        48.00
561.65        48.00
562.18        48.00
562.73        48.00
563.13        48.00
563.68        48.00
564.21        48.00
564.61        48.00
565.17        48.00
565.71        48.00
566.12        48.00
566.65        48.50
567.20        48.00
567.74        48.50
568.15        48.50
568.69        48.50
569.23        48.50
569.63        48.50
570.18        48.50
570.72        48.50
571.12        48.50
571.67        48.50
572.21        48.50
572.61        48.50
573.16        48.50
573.70        48.50
574.24        48.50
574.65        48.50
575.18        48.50
575.73        49.00
576.13        49.00
576.68        49.00
577.22        49.00
577.62        49.00
578.17        49.00
578.71        49.00
579.11        49.00
579.65        49.00
580.19        49.00
580.61        49.00
581.14        49.00
581.68        49.00
582.23        49.00
582.64        49.00
583.17        49.50
583.71        49.50
584.13        49.50
584.67        49.50
585.20        49.50
585.61        49.50
586.15        49.50
586.70        49.50
587.10        49.50
587.65        49.50
588.18        49.50
588.73        49.50
589.13        49.50
589.68        49.50
590.21        49.50
590.62        49.50
591.17        49.50
591.71        49.50
592.11        50.00
592.65        50.00
593.20        50.00
593.60        50.00
594.14        50.00
594.68        50.00
595.23        50.00
595.63        50.00
596.17        50.00
596.71        50.00
597.12        50.00
597.66        50.00
598.21        50.00
598.61        50.00
599.15        50.50
599.69        50.00
600.10        50.50
600.65        50.50
601.18        50.50
601.72        50.50
602.15        50.50
602.68        50.50
603.22        50.50
603.63        50.50
604.17        50.50
604.71        50.50
605.11        50.50
605.65        50.50
606.20        50.50
606.60        50.50
607.13        50.50
607.68        51.00
608.21        51.00
608.62        51.00
609.17        51.00
609.69        51.00
610.10        51.00
610.65        51.00
611.18        51.00
611.59        51.00
612.14        51.00
612.68        51.00
613.21        51.00
613.61        51.00
614.15        51.00
614.69        51.00
615.11        51.50
615.65        51.00
616.18        51.50
616.73        51.50
617.13        51.50
617.67        51.50
618.21        51.50
618.62        51.50
619.16        51.50
619.69        51.50
620.09        51.50
620.64        51.50
621.17        51.50
621.72        51.50
622.12        51.50
622.67        51.50
623.21        52.00
623.61        52.00
624.16        52.00
624.69        52.00
625.09        52.00
625.65        52.00
626.18        52.00
626.72        52.00
627.12        52.00
627.67        52.00
628.21        52.00
628.61        52.00
629.15        52.00
629.70        52.00
630.09        52.00
630.64        52.00
631.18        52.00
631.72        52.50
632.12        52.50
632.66        52.50
633.19        52.50
633.61        52.50
634.14        52.50
634.69        52.50
635.10        52.50
635.62        52.50
636.17        52.50
636.71        52.50
637.13        52.50
637.65        52.50
638.20        52.50
638.60        52.50
639.15        53.00
639.69        53.00
640.10        53.00
640.62        53.00
641.17        53.00
641.71        53.00
642.12        53.00
642.67        53.00
643.20        53.00
643.60        53.00
644.15        53.00
644.67        53.00
645.09        53.00
645.62        53.00
646.17        53.00
646.71        53.50
647.11        53.50
647.65        53.50
648.19        53.50
648.59        53.50
649.14        53.50
649.68        53.50
650.08        53.50
650.62        53.50
651.16        53.50
651.71        53.50
652.10        53.50
652.65        53.50
653.19        53.50
653.59        53.50
654.14        53.50
654.67        54.00
655.09        54.00
655.62        54.00
656.17        54.00
656.70        54.00
657.11        54.00
657.65        54.00
658.18        54.00
658.59        54.00
659.14        54.00
659.67        54.00
660.09        54.00
660.62        54.00
661.17        54.00
661.70        54.00
662.13        54.00
662.65        54.50
663.20        54.50
663.60        54.50
664.14        54.50
664.66        54.50
665.09        54.50
665.62        54.50
666.17        54.50
666.70        54.50
667.09        54.50
667.64        54.50
668.18        54.50
668.59        54.50
669.13        54.50
669.66        55.00
670.20        55.00
670.60        55.00
671.14        55.00
671.68        55.00
672.09        55.00
672.62        55.00
673.16        55.00
673.69        55.00
674.11        55.00
674.64        55.00
675.16        55.00
675.69        55.00
676.11        55.00
676.65        55.00
677.19        55.50
677.59        55.50
678.14        55.50
678.69        55.50
679.08        55.50
679.62        55.50
680.15        55.50
680.70        55.50
681.10        55.50
681.64        55.50
682.18        55.50
682.59        55.50
683.13        55.50
683.67        55.50
684.21        55.50
684.61        55.50
685.15        56.00
685.68        56.00
686.08        56.00
686.63        56.00
687.17        56.00
687.58        56.00
688.11        56.00
688.65        56.00
689.19        56.00
689.59        56.00
690.14        56.00
690.67        56.00
691.07        56.00
691.60        56.00
692.15        56.00
692.69        56.50
693.09        56.50
693.63        56.50
694.17        56.50
694.57        56.50
695.11        56.50
695.65        56.50
696.19        56.50
696.60        56.50
697.13        56.50
697.67        56.50
698.07        56.50
698.62        56.50
699.14        56.50
699.68        56.50
700.09        56.50
700.63        57.00
701.18        57.00
701.57        57.00
702.12        57.00
702.64        57.00
703.19        57.00
703.59        57.00
704.13        57.00
704.67        57.00
705.07        57.00
705.62        57.00
706.16        57.00
706.70        57.00
707.09        57.00
707.64        57.00
708.16        57.50
708.57        57.50
709.12        57.50
709.65        57.50
710.20        57.50
710.59        57.50
711.14        57.50
711.67        57.50
712.09        57.50
712.62        57.50
713.17        57.50
713.70        57.50
714.09        57.50
714.63        58.00
715.17        58.00
715.59        58.00
716.12        58.00
716.67        58.00
717.06        58.00
717.60        58.00
718.13        58.00
718.67        58.00
719.08        58.00
719.61        58.00
720.15        58.00
720.57        58.00
721.10        58.00
721.64        58.00
722.19        58.50
722.59        58.50
723.14        58.50
723.68        58.50
724.07        58.50
724.62        58.50
725.17        58.50
725.56        58.50
726.10        58.50
726.64        58.50
727.18        58.50
727.57        58.50
728.12        58.50
728.66        58.50
729.05        58.50
729.59        59.00
730.13        59.00
730.68        59.00
731.09        59.00
731.62        59.00
732.15        59.00
732.55        59.00
733.11        59.00
733.64        59.00
734.19        59.00
734.58        59.00
735.12        59.00
735.67        59.00
736.06        59.00
736.61        59.00
737.14        59.00
737.68        59.00
738.07        59.50
738.62        59.50
739.17        59.50
739.56        59.50
740.11        59.50
740.65        59.50
741.18        59.50
741.59        59.50
742.13        59.50
742.67        59.50
743.07        59.50
743.60        59.50
744.15        59.50
744.69        59.50
745.09        59.50
745.63        59.50
746.17        59.50
746.57        59.50
747.10        60.00
747.64        60.00
748.18        60.00
748.59        60.00
749.12        60.00
749.67        60.00
750.07        60.00
750.61        60.00
751.15        60.00
751.56        60.00
752.09        60.00
752.64        60.00
753.17        60.00
753.57        60.00
754.10        60.00
754.65        60.00
755.05        60.50
755.59        60.50
756.14        60.50
756.67        60.50
757.07        60.50
757.60        60.50
758.15        60.50
758.56        60.50
759.09        60.50
759.64        60.50
760.18        60.50
760.58        60.50
761.12        60.50
761.66        60.50
762.05        60.50
762.59        60.50
763.13        60.50
763.66        60.50
764.08        61.00
764.62        61.00
765.16        61.00
765.56        61.00
766.09        61.00
766.63        61.00
767.18        61.00
767.57        61.00
768.11        61.00
768.65        61.00
769.05        61.00
769.60        61.00
770.13        61.00
770.67        61.00
771.07        61.00
771.62        61.00
772.15        61.00
772.56        61.50
773.11        61.50
773.64        61.50
774.18        61.50
774.58        61.50
775.12        61.50
775.66        61.50
776.06        61.50
776.60        61.50
777.13        61.50
777.54        61.50
778.08        61.50
778.62        61.50
779.17        61.50
779.56        61.50
780.10        61.50
780.65        61.50
781.04        62.00
781.59        62.00
782.14        62.00
782.68        62.00
783.07        62.00
783.62        62.00
784.16        62.00
784.56        62.00
785.10        62.00
785.63        62.00
786.04        62.00
786.58        62.00
787.12        62.00
787.64        62.00
788.07        62.00
788.60        62.00
789.14        62.00
789.54        62.00
790.07        62.00
790.62        62.50
791.16        62.50
791.57        62.50
792.10        62.50
792.64        62.50
793.05        62.50
793.58        62.50
794.13        62.50
794.66        62.50
795.07        62.50
795.60        62.50
796.15        62.50
796.54        62.50
797.08        62.50
797.63        62.50
798.17        62.50
798.57        62.50
799.10        62.50
799.65        63.00
800.04        62.50
800.59        63.00
801.11        63.00
801.67        63.00
802.06        63.00
802.60        63.00
803.15        63.00
803.55        63.00
804.09        63.00
804.63        63.00
805.16        63.00
805.56        63.00
806.10        63.00
806.65        63.00
807.04        63.00
807.58        63.00
808.13        63.00
808.67        63.00
809.07        63.00
809.61        63.00
810.15        63.50
810.55        63.50
811.10        63.50
811.63        63.50
812.03        63.50
812.57        63.50
813.10        63.50
813.65        63.50
814.05        63.50
814.58        63.50
815.12        63.50
815.53        63.50
816.07        63.50
816.62        63.50
817.15        63.50
817.55        63.50
818.08        63.50
818.63        63.50
819.04        63.50
819.57        63.50
820.12        63.50
820.65        64.00
821.05        64.00
821.60        64.00
822.14        64.00
822.53        64.00
823.08        64.00
823.62        64.00
824.15        64.00
824.56        64.00
825.10        64.00
825.64        64.00
826.04        64.00
826.59        64.00
827.11        64.00
827.65        64.00
828.05        64.00
828.60        64.00
829.14        64.00
829.54        64.00
830.07        64.00
830.62        64.00
831.16        64.00
831.56        64.50
832.11        64.50
832.63        64.50
833.05        64.50
833.59        64.50
834.11        64.50
834.65        64.50
835.05        64.50
835.60        64.50
836.14        64.50
836.53        64.50
837.08        64.50
837.62        64.50
838.16        64.50
838.56        64.50
839.11        64.50
839.63        64.50
840.04        64.50
840.58        64.50
841.12        64.50
841.53        64.50
842.08        64.50
842.62        64.50
843.14        64.50
843.57        65.00
844.09        65.00
844.64        65.00
845.03        65.00
845.58        65.00
846.12        65.00
846.66        65.00
847.06        65.00
847.59        65.00
848.14        65.00
848.53        65.00
849.08        65.00
849.62        65.00
850.02        65.00
850.56        65.00
851.10        65.00
851.63        65.00
852.04        65.00
852.58        65.00
853.13        65.00
853.52        65.00
854.07        65.00
854.59        65.00
855.14        65.00
855.54        65.50
856.09        65.50
856.61        65.50
857.03        65.50
857.57        65.50
858.11        65.50
858.64        65.50
859.04        65.50
859.59        65.50
860.11        65.50
860.52        65.50
861.06        65.50
861.61        65.50
862.13        65.50
862.55        65.50
863.09        65.50
863.62        65.50
864.03        65.50
864.57        65.50
865.11        65.50
865.64        65.50
866.06        65.50
866.60        65.50
867.12        66.00
867.54        65.50
868.07        66.00
868.61        66.00
869.14        66.00
869.56        66.00
870.08        66.00
870.64        66.00
871.03        66.00
871.56        66.00
872.10        66.00
872.64        66.00
873.05        66.00
873.59        66.00
874.14        66.00
874.53        66.00
875.08        66.00
875.62        66.00
876.01        66.00
876.55        66.00
877.08        66.00
877.63        66.00
878.03        66.00
878.57        66.00
879.11        66.00
879.52        66.00
880.06        66.00
880.60        66.00
881.14        66.50
881.54        66.50
882.08        66.00
882.62        66.50
883.01        66.50
883.56        66.50
884.10        66.50
884.62        66.50
885.04        66.50
885.59        66.50
886.11        66.50
886.51        66.50
887.06        66.50
887.60        66.50
888.14        66.50
888.54        66.50
889.08        66.50
889.62        66.50
890.02        66.50
890.56        66.50
891.10        66.50
891.64        66.50
892.04        66.50
892.59        66.50
893.11        66.50
893.52        66.50
894.06        66.50
894.61        66.50
895.01        66.50
895.54        66.50
896.08        66.50
896.62        67.00
897.02        67.00
897.57        67.00
898.11        67.00
898.50        67.00
899.05        67.00
899.59        67.00
900.12        67.00
900.52        67.00
901.07        67.00
901.61        67.00
902.03        67.00
902.55        67.00
903.10        67.00
903.52        67.00
904.04        67.00
904.58        67.00
905.12        67.00
905.53        67.00
906.06        67.00
906.60        67.00
907.00        67.00
907.54        67.00
908.08        67.00
908.63        67.00
909.02        67.00
909.54      -127.00
910.09        67.00
910.64        67.00
911.03        67.00
911.59        67.50
912.12        67.50
912.53        67.50
913.06        67.50
913.59        67.50
914.00        67.50
914.54        67.50
915.07        67.50
915.63        67.50
916.02        67.50
916.56        67.50
917.09        67.50
917.50        67.50
918.04        67.50
918.59        67.50
919.12        67.50
919.53        67.50
920.06        67.50
920.60        67.50
921.01        67.50
921.54        67.50
922.07        67.50
922.62        67.50
923.02        67.50
923.57        67.50
924.10        67.50
924.51        67.50
925.04        67.50
925.57        67.50
926.13        67.50
926.53        67.50
927.06        67.50
927.59        67.50
928.00        67.50
928.54        68.00
929.08        68.00
929.63        68.00
930.02        68.00
930.57        68.00
931.11        68.00
931.51        68.00
932.05        68.00
932.59        68.00
933.13        68.00
933.52        68.00
934.07        68.00
934.61        68.00
935.01        68.00
935.54        68.00
936.09        68.00
936.63        68.00
937.03        68.00
937.57        68.00
938.10        68.00
938.51        68.00
939.05        68.00
939.59        68.00
940.00        68.00
940.54        68.00
941.07        68.00
941.62        68.00
942.01        68.00
942.55        68.00
943.09        68.00
943.49        68.00
944.04        68.00
944.57        68.00
945.12        68.00
945.51        68.00
946.05        68.00
946.60        68.00
946.99        68.00
947.54        68.00
948.07        68.00
948.63        68.50
949.03        68.00
949.57        68.50
950.10        68.50
950.50        68.50
951.03        68.50
951.59        68.50
951.98        68.50
952.54        68.50
953.07        68.50
953.60        68.50
954.02        68.50
954.56        68.50
955.08        68.50
955.50        68.50
956.03        68.50
956.57        68.50
957.10        68.50
957.51        68.50
958.04        68.50
958.59        68.50
958.99        68.50
959.54        68.50
960.07        68.50
960.62        68.50
961.01        68.50
961.56        68.50
962.11        68.50
962.51        68.50
963.06        68.50
963.59        68.50
963.98        68.50
964.52        68.50
965.07        68.50
965.62        68.50
966.01        68.50
966.55        68.50
967.09        68.50
967.48        68.50
968.04        68.50
968.58        68.50
969.11        68.50
969.51        68.50
970.06        68.50
970.58        69.00
970.99        69.00
971.52        69.00
972.08        69.00
972.61        69.00
973.01        69.00
973.54        69.00
974.09        69.00
974.49        69.00
975.03        69.00
975.57        69.00
976.11        69.00
976.51        69.00
977.06        69.00
977.59        69.00
978.00        69.00
978.53        69.00
979.08        69.00
979.61        69.00
980.01        69.00
980.56        69.00
981.10        69.00
981.51        69.00
982.04        69.00
982.58        69.00
983.11        69.00
983.51        69.00
984.06        69.00
984.59        69.00
984.99        69.00
985.53        69.00
986.07        69.00
986.48        69.00
987.02        69.00
987.55        69.00
988.10        69.00
988.50        69.00
989.04        69.00
989.58        69.00
989.98        69.00
990.53        69.00
991.06        69.00
991.59        69.00
992.01        69.00
992.54        69.00
993.09        69.50
993.48        69.00
994.02        69.00
994.56        69.50
995.10        69.50
995.51        69.50
996.04        69.50
996.58        69.00
996.99        69.50
997.52        69.50
998.07        69.50
998.60        69.50
999.01        69.50
999.54        69.50
1000.08        69.50
1000.48        69.50
1001.02        69.50
1001.56        69.50
1002.11        69.50
1002.50        69.50
1003.04        69.50
1003.58        69.50
1003.99        69.50
1004.52        69.50
1005.06        69.50
1005.61        69.50
1006.01        69.50
1006.55        69.50
1007.09        69.50
1007.48        69.50
1008.02        69.50
1008.57        69.50
1009.10        69.50
1009.51        69.50
1010.05        69.50
1010.59        69.50
1010.98        69.50
1011.52        69.50
1012.07        69.50
1012.48        69.50
1013.01        69.50
1013.55        69.50
1014.09        69.50
1014.49        69.50
1015.04        69.50
1015.57        69.50
1015.97        70.00
1016.51        70.00
1017.05        69.50
1017.59        70.00
1018.00        70.00
1018.54        70.00
1019.07        70.00
1019.47        70.00
1020.02        70.00
1020.55        70.00
1021.09        70.00
1021.49        70.00
1022.05        70.00
1022.59        70.00
1022.99        70.00
1023.54        70.00
1024.06        70.00
1024.48        70.00
1025.01        70.00
1025.56        70.00
1026.09        70.00
1026.49        70.00
1027.02        70.00
1027.57        70.00
1027.97        70.00
1028.50        70.00
1029.04        70.00
1029.58        70.00
1030.00        70.00
1030.52        70.00
1031.07        70.00
1031.48        70.00
1032.01        70.00
1032.55        70.00
1033.09        70.00
1033.50        70.00
1034.03        70.00
1034.58        70.00
1034.98        70.00
1035.52        70.00
1036.06        70.00
1036.59        70.00
1037.00        70.00
1037.53        70.00
1038.07        70.00
1038.49        70.00
1039.02        70.00
1039.56        70.00
1040.09        70.00
1040.50        70.00
1041.03        70.00
1041.57        70.00
1041.97        70.00
1042.51        70.00
1043.05        70.00
1043.59        70.00
1043.99        70.00
1044.55        70.00
1045.08        70.00
1045.47        70.00
1046.01        70.00
1046.56        70.00
1047.09        70.00
1047.50        70.00
1048.04        70.00
1048.58        70.00
1048.98        70.50
1049.52        70.50
1050.06        70.50
1050.45        70.00
1051.00        70.50
1051.55        70.50
1052.08        70.50
1052.48        70.50
1053.03        70.50
1053.55        70.00
1053.96        70.50
1054.49        70.00
1055.03        70.50
1055.57        70.50
1055.98        70.50
1056.53        70.50
1057.07        70.50
1057.47        70.50
1058.01        70.50
1058.54        70.50
1059.09        70.50
1059.48        70.50
1060.03        70.50
1060.57        70.50
1060.96        70.50
1061.51        70.50
1062.05        70.50
1062.58        70.50
1062.99        70.50
1063.52        70.50
1064.06        70.50
1064.46        70.50
1065.01        70.50
1065.54        70.50
1066.09        70.50
1066.50        70.50
1067.02        70.50
1067.57        70.50
1067.96        70.50
1068.51        70.50
1069.04        70.50
1069.59        70.50
1069.99        70.50
1070.54        70.50
1071.06        70.50
1071.48        70.50
1072.02        70.50
1072.54        70.50
1073.08        70.50
1073.48        70.50
1074.03        70.50
1074.58        70.50
1074.97        70.50
1075.51        70.50
1076.05        70.50
1076.45        70.50
1076.99        70.50
1077.52        70.50
1078.07        70.50
1078.47        70.50
1079.02        70.50
1079.56        70.50
1079.95        70.50
1080.50        70.50
1081.03        70.50
1081.57        70.50
1081.99        70.50
1082.52        70.50
1083.06        70.50
1083.48        70.50
1084.02        70.50
1084.55        70.50
1084.94        70.50
1085.49        70.50
1086.03        70.50
1086.58        70.50
1086.97        70.50
1087.50        70.50
1088.04        70.50
1088.45        70.50
1089.00        70.50
1089.53        70.50
1090.07        70.50
1090.46        70.50
1091.02        70.50
1091.55        70.50
1091.95        70.50
1092.48        70.50
1093.02        70.50
1093.57        70.50
1093.97        70.50
1094.51        70.50
1095.06        70.50
1095.46        70.50
1095.99        70.50
1096.54        70.50
1097.08        70.50
1097.47        70.50
1098.01        70.50
1098.56        70.50
1098.95        70.50
1099.50        70.50
1100.04        70.50
1100.57        70.50
1100.97        70.50
1101.51        70.50
1102.06        70.50
1102.45        70.50
1103.00        70.50
1103.54        70.50
1104.07        70.50
1104.47        71.00
1105.02        70.50
1105.55        70.50
1105.97        70.50
1106.50        70.50
1107.04        70.50
1107.59        70.50
1107.98        70.50
1108.52        71.00
1109.06        70.50
1109.47        71.00
1109.99        70.50
1110.54        71.00
1110.94        70.50
1111.49        70.50
1112.02        70.50
1112.57        71.00
1112.95        71.00
1113.50        70.50
1114.03        70.50
1114.44        71.00
1114.98        71.00
1115.53        71.00
1116.05        71.00
1116.46        71.00
1117.01        70.50
1117.55        70.50
1117.94        71.00
1118.49        71.00
1119.03        71.00
1119.57        71.00
1119.96        71.00
1120.51        71.00
1121.04        71.00
1121.44        71.00
1121.98        71.00
1122.53        71.00
1123.05        71.00
1123.46        71.00
1124.00        71.00
1124.54        71.00
1124.95        71.00
1125.50        71.00
1126.03        71.00
1126.56        71.00
1126.97        71.00
1127.52        71.00
1128.05        71.00
1128.44        71.00
1128.98        71.00
1129.52        71.00
1130.06        71.00
1130.47        71.00
1131.02        71.00
1131.56        71.00
1131.96        71.00
1132.48        71.00
1133.03        71.00
1133.57        71.00
1133.96        71.00
1134.51        71.00
1135.05        71.00
1135.44        71.00
1135.99        71.00
1136.53        71.00
1136.94        71.00
1137.48        71.00
1138.02        71.00
1138.56        71.00
1138.95        71.00
1139.49        71.00
1140.04        71.00
1140.44        71.00
1140.96        71.00
1141.51        71.00
1142.07        71.00
1142.47        71.00
1143.02        71.00
1143.56        71.00
1143.96        71.00
1144.50        71.00
1145.02        71.00
1145.45        71.00
1145.97        71.00
1146.51        71.00
1147.05        71.00
1147.45        71.00
1147.99        71.00
1148.54        71.00
1148.94        71.00
1149.48        71.00
1150.02        71.00
1150.56        71.00
1150.95        71.00
1151.50        71.00
1152.04        71.00
1152.44        71.00
1152.98        71.00
1153.53        71.00
1154.05        71.00
1154.47        71.00
1154.99        71.00
1155.53        71.00
1155.95        71.00
1156.47        71.00
1157.02        71.00
1157.56        71.00
1157.96        71.00
1158.50        71.00
1159.03        71.00
1159.45        71.00
1159.98        71.00
1160.53        71.00
1161.05        71.00
1161.47        71.00
1162.00        71.00
1162.53        71.00
1162.94        71.00
1163.48        71.00
1164.03        71.00
1164.57        71.00
1164.97        71.00
1165.50        71.00
1166.04        71.00
1166.44        71.00
1166.98        71.00
1167.53        71.00
1167.92        71.00
1168.47        71.00
1169.01        71.00
1169.53        71.00
1169.94        71.00
1170.48        71.00
1171.03        71.00
1171.43        71.00
1171.98        71.00
1172.51        71.00
1173.04        71.00
1173.44        71.00
1173.99        71.00
1174.53        71.00
1174.93        71.00
1175.47        71.00
1176.01        71.00
1176.54        71.00
1176.96        71.00
1177.48        71.00
1178.03        71.00
1178.43        71.00
1178.97        71.00
1179.52        71.00
1180.04        71.00
1180.44        71.00
1180.99        71.00
1181.53        71.00
1181.93        71.00
1182.47        71.00
1183.02        71.00
1183.56        71.00
1183.96        71.00
1184.50        71.00
1185.04        71.00
1185.42        71.00
1185.98        71.00
1186.52        71.00
1187.06        71.00
1187.46        71.00
1188.00        71.00
1188.54        71.00
1188.94        71.00
1189.48        71.00
1190.02        71.00
1190.55        71.00
1190.95        71.00
1191.49        71.00
1192.04        71.00
1192.43        71.00
1192.98        71.00
1193.51        71.00
1193.91        71.00
1194.45        71.00
1195.00        71.00
1195.54        71.00
1195.93        71.00
1196.48        71.00
1197.01        71.00
1197.41        71.00
1197.96        71.00
1198.50        71.00
1199.04        71.00
1199.44        71.00
1199.99        71.00
1200.53        71.00
1200.92        71.00
1201.47        71.00
1202.00        71.00
1202.42        71.00
1202.95        71.00
1203.49        71.00
1204.03        71.00
1204.44        71.00
1204.98        71.00
1205.52        71.00
1205.93        71.00
1206.47        71.00
1206.98        71.00
1207.53        71.00
1207.94        71.00
1208.47        71.00
1209.02        71.00
1209.42        71.00
1209.96        71.00
1210.50        71.00
1211.04        71.00
1211.44        71.00
1211.97        71.00
1212.52        71.00
1212.92        71.00
1213.46        71.00
1214.00        71.00
1214.54        71.00
1214.94        71.00
1215.49        71.00
1216.01        71.00
1216.43        71.00
1216.97        71.00
1217.49        71.00
1218.03        71.00
1218.44        71.00
1218.98        71.00
1219.52        71.00
1219.92        71.00
1220.47        71.00
1221.00        71.00
1221.54        71.00
1221.93        71.00
1222.48        71.00
1223.02        71.00
1223.42        71.00
1223.97        71.00
1224.49        71.00
1225.03        71.00
1225.44        71.00
1225.98        71.00
1226.53        71.00
1226.92        71.00
1227.47        71.00
1228.01        71.00
1228.40        71.00
1228.95        71.00
1229.48        71.00
1230.02        71.00
1230.44        71.00
1230.97        71.00
1231.51        71.00
1231.90        71.00
1232.45        71.00
1232.99        71.00
1233.53        71.00
1233.93        71.00
1234.47        71.00
1234.99        71.00
1235.41        71.00
1235.94        71.00
1236.49        71.00
1237.03        71.00
1237.44        71.00
1237.97        71.00
1238.51        71.00
1238.91        71.00
1239.46        71.00
1239.99        71.00
1240.53        71.00
1240.93        71.00
1241.48        71.00
1242.01        71.00
1242.42        71.00
1242.94        71.00
1243.48        71.00
1244.03        71.00
1244.43        71.00
1244.96        71.00
1245.51        71.00
1245.91        71.00
1246.45        71.00
1246.99        71.00
1247.53        71.00
1247.94        71.00
1248.46        71.00
1249.01        71.00
1249.41        71.00
1249.95        71.00
1250.49        71.00
1251.03        71.00
1251.43        71.00
1251.98        71.00
1252.52        71.00
1252.92        71.00
1253.45        71.00
1253.99        71.00
1254.54        71.00
1254.94        71.00
1255.47        71.00
1256.01        71.00
1256.42        71.00
1256.97        71.00
1257.50        71.00
1257.90        71.00
1258.45        71.00
1258.98        71.00
1259.53        71.00
1259.92        71.00
1260.46        71.00
1261.00        71.00
1261.40        71.00
1261.96        71.00
1262.50        71.00
1262.89        71.00
1263.44        71.00
1263.97        71.00
1264.50        71.00
1264.92        71.00
1265.46        71.00
1266.00        71.00
1266.39        71.00
1266.93        71.00
1267.48        71.00
1268.01        71.00
1268.42        71.00
1268.96        71.00
1269.49        71.00
1269.91        71.00
1270.43        71.00
1270.97        71.00
1271.50        71.00
1271.92        71.00
1272.45        71.00
1273.00        71.00
1273.40        71.00
1273.94        71.00
1274.48        71.00
1275.02        71.00
1275.41        71.00
1275.96        71.00
1276.49        71.00
1276.91        71.00
1277.44        71.00
1277.98        71.00
1278.52        71.00
1278.91        70.50
1279.46        70.50
1279.99        71.00
1280.41        71.00
1280.95        70.50
1281.47        71.00
1282.01        71.00
1282.42        70.50
1282.97        70.50
1283.50        70.50
1283.90        70.50
1284.44        70.50
1284.98        70.50
1285.51        70.50
1285.92        70.50
1286.47        70.50
1286.99        71.00
1287.41        70.50
1287.95        70.50
1288.48        71.00
1289.03        70.50
1289.41        70.50
1289.97        70.50
1290.50        70.50
1290.90        70.50
1291.44        70.50
1291.98        70.50
1292.40        70.50
1292.93        70.50
1293.47        70.50
1294.01        70.50
1294.40        70.50
1294.95        70.50
1295.49        70.50
1295.88        70.50
1296.42        70.50
1296.96        70.50
1297.50        70.50
1297.91        70.50
1298.44        70.50
1298.99        70.50
1299.40        70.50
1299.94        70.50
1300.47        70.50
1301.02        70.50
1301.41        70.50
1301.95        70.50
1302.50        70.50
1302.89        70.50
1303.43        70.50
1303.97        70.50
1304.50        70.50
1304.92        70.50
1305.46        70.50
1305.99        70.50
1306.40        70.50
1306.94        70.50
1307.47        70.50
1308.00        70.50
1308.42        70.50
1308.95        70.50
1309.48        70.50
1309.89        70.50
1310.44        70.50
1310.96        70.50
1311.51        70.50
1311.91        70.50
1312.45        70.50
1312.98        70.50
1313.40        70.50
1313.93        70.50
1314.48        70.50
1315.02        70.50
1315.41        70.50
1315.95        70.50
1316.50        70.50
1316.89        70.50
1317.44        70.50
1317.98        70.50
1318.39        70.50
1318.91        70.50
1319.46        70.50
1319.99        70.50
1320.40        70.50
1320.94        70.50
1321.47        70.50
1321.89        70.50
1322.43        70.50
1322.98        70.50
1323.50        70.50
1323.91        70.50
1324.46        70.50
1325.00        70.50
1325.40        70.50
1325.93        70.50
1326.48        70.50
1326.87        70.50
1327.42        70.50
1327.95        70.50
1328.50        70.50
1328.90        70.50
1329.44        70.50
1329.97        70.50
1330.37        70.50
1330.92        70.50
1331.46        70.50
1331.99        70.50
1332.40        70.50
1332.94        70.50
1333.48        70.50
1333.89        70.50
1334.42        70.50
1334.96        70.50
1335.49        70.50
1335.91        70.50
1336.45        70.50
1336.97        70.50
1337.37        70.50
1337.91        70.50
1338.45        70.50
1338.99        70.50
1339.40        70.50
1339.93        70.50
1340.48        70.50
1340.88        70.50
1341.41        70.50
1341.96        70.50
1342.50        70.50
1342.89        70.50
1343.44        70.50
1343.98        70.50
1344.38        70.50
1344.92        70.50
1345.47        70.50
1346.00        70.50
1346.40        70.50
1346.95        70.50
1347.49        70.50
1347.88        70.50
1348.42        70.50
1348.96        70.50
1349.49        70.50
1349.89        70.50
1350.44        70.50
1350.98        70.50
1351.37        70.50
1351.92        70.50
1352.46        70.50
1352.99        70.00
1353.40        70.00
1353.93        70.00
1354.49        70.00
1354.87        70.00
1355.42        70.00
1355.97        70.00
1356.50        70.00
1356.90        70.00
1357.44        70.00
1357.98        70.00
1358.38        70.00
1358.93        70.00
1359.46        70.00
1359.99        70.00
1360.40        70.00
1360.95        70.00
1361.48        70.00
1361.88        70.00
1362.42        70.00
1362.97        70.00
1363.51        70.00
1363.90        70.00
1364.45        70.00
1364.98        70.00
1365.38        70.00
1365.93        70.00
1366.47        70.00
1366.86        70.00
1367.41        70.00
1367.94        70.00
1368.48        70.00
1368.88        70.00
1369.43        70.00
1369.97        70.00
1370.36        70.00
1370.90        70.00
1371.45        70.00
1371.98        70.00
1372.39        70.00
1372.93        70.00
1373.47        70.00
1373.87        70.00
1374.41        70.00
1374.94        70.00
1375.49        70.00
1375.90        70.00
1376.44        70.00
1376.97        70.00
1377.37        70.00
1377.91        70.00
1378.45        70.00
1378.98        70.00
1379.38        70.00
1379.93        70.00
1380.48        70.00
1380.87        70.00
1381.41        70.00
1381.96        70.00
1382.37        70.00
1382.90        70.00
1383.44        70.00
1383.98        70.00
1384.38        70.00
1384.93        70.00
1385.46        70.00
1385.87        70.00
1386.41        70.00
1386.94        70.00
1387.48        70.00
1387.89        70.00
1388.42        70.00
1388.97        70.00
1389.37        70.00
1389.91        70.00
1390.45        70.00
1390.98        70.00
1391.39        70.00
1391.94        70.00
1392.46        70.00
1392.87        69.50
1393.42        70.00
1393.95        69.50
1394.50        69.50
1394.88        70.00
1395.42        69.50
1395.97        70.00
1396.37        69.50
1396.92        70.00
1397.46        69.50
1398.00        69.50
1398.39        69.50
1398.92        69.50
1399.45      -127.00
1399.99        69.50
1400.39        69.50
1400.93        69.50
1401.48        69.50
1401.88        69.50
1402.42        69.50
1402.96        69.50
1403.36        69.50
1403.90        69.50
1404.43        69.50
1404.98        69.50
1405.38        69.50
1405.91        69.50
1406.45        69.50
1406.86        69.50
1407.40        69.50
1407.94        69.50
1408.47        69.50
1408.87        69.50
1409.41        69.50
1409.95        69.50
1410.35        69.50
1410.91        69.50
1411.44        69.50
1411.98        69.50
1412.39        69.50
1412.92        69.50
1413.46        69.50
1413.86        69.50
1414.41        69.50
1414.93        69.50
1415.48        69.50
1415.89        69.50
1416.41        69.50
1416.95        69.50
1417.36        69.50
1417.90        69.50
1418.43        69.50
1418.98        69.50
1419.39        69.50
1419.92        69.50
1420.46        69.50
1420.87        69.50
1421.40        69.50
1421.94        69.50
1422.47        69.50
1422.88        69.50
1423.42        69.50
1423.97        69.50
1424.38        69.50
1424.91        69.50
1425.45        69.50
1425.85        69.50
1426.39        69.50
1426.94        69.50
1427.46        69.50
1427.88        69.50
1428.42        69.50
1428.95        69.50
1429.35        69.50
1429.89        69.50
1430.42        69.50
1430.97        69.50
1431.37        69.50
1431.91        69.50
1432.45        69.50
1432.86        69.50
1433.40        69.50
1433.93        69.50
1434.47        69.50
1434.88        69.50
1435.42        69.50
1435.95        69.50
1436.35        69.50
1436.90        69.50
1437.43        69.50
1437.98        69.50
1438.37        69.50
1438.91        69.50
1439.44        69.50
1439.85        69.50
1440.40        69.50
1440.94        69.50
1441.47        69.50
1441.88        69.50
1442.42        69.50
1442.97        69.50
1443.37        69.50
1443.91        69.50
1444.45        69.50
1444.85        69.50
1445.39        69.00
1445.93        69.00
1446.47        69.00
1446.87        69.50
1447.40        69.50
1447.95        69.50
1448.35        69.50
1448.89        69.00
1449.42        69.50
1449.97        69.00
1450.38        69.00
1450.91        69.00
1451.45        69.00
1451.85        69.00
1452.39        69.00
1452.93        69.00
1453.47        69.00
1453.87        69.00
1454.41        69.00
1454.95        69.00
1455.35        69.00
1455.88        69.00
1456.44        69.00
1456.96        69.00
1457.38        69.00
1457.91        69.00
1458.45        69.00
1458.86        69.00
1459.40        69.00
1459.94        69.00
1460.34        69.00
1460.88        69.00
1461.42        69.00
1461.96        69.00
1462.36        69.00
1462.90        69.00
1463.43        69.00
1463.83        69.00
1464.37        69.00
1464.91        69.00
1465.46        69.00
1465.85        69.00
1466.39        69.00
1466.93        69.00
1467.34        69.00
1467.88        69.00
1468.41        69.00
1468.96        69.00
1469.36        69.00
1469.90        69.00
1470.44        69.00
1470.84        69.00
1471.38        69.00
1471.91        69.00
1472.45        69.00
1472.86        69.00
1473.41        69.00
1473.94        69.00
1474.35        69.00
1474.89        69.00
1475.43        69.00
1475.95        69.00
1476.37        69.00
1476.91        69.00
1477.44        69.00
1477.84        69.00
1478.38        69.00
1478.93        69.00
1479.47        69.00
1479.86        69.00
1480.40        69.00
1480.93        69.00
1481.34        69.00
1481.88        69.00
1482.43        69.00
1482.97        69.00
1483.37        69.00
1483.91        69.00
1484.45        69.00
1484.84        69.00
1485.38        69.00
1485.92        69.00
1486.33        69.00
1486.87        69.00
1487.40        69.00
1487.95        69.00
1488.34        69.00
1488.88        69.00
1489.43        69.00
1489.84        69.00
1490.37        69.00
1490.91        69.00
1491.45        68.50
1491.84        69.00
1492.38        69.00
1492.92        69.00
1493.33        69.00
1493.87        69.00
1494.40        68.50
1494.95        68.50
1495.35        68.50
1495.89        68.50
1496.43        68.50
1496.84        68.50
1497.36        68.50
1497.90        68.50
1498.45        68.50
1498.86        68.50
1499.38        68.50
1499.92        68.50
1500.34        68.50
1500.88        68.50
1501.41        68.50
1501.83        68.50
1502.37        68.50
1502.91        68.50
1503.44        68.50
1503.84        68.50
1504.39        68.50
1504.93        68.50
1505.33        68.50
1505.87        68.50
1506.40        68.50
1506.95        68.50
1507.35        68.50
1507.89        68.50
1508.43        68.50
1508.84        68.50
1509.37        68.50
1509.91        68.50
1510.44        68.50
1510.86        68.50
1511.39        68.50
1511.92        68.50
1512.34        68.50
1512.87        68.50
1513.42        68.50
1513.95        68.50
1514.36        68.50
1514.90        68.50
1515.43        68.50
1515.83        68.50
1516.37        68.50
1516.91        68.50
1517.45        68.50
1517.86        68.50
1518.39        68.50
1518.93        68.50
1519.33        68.50
1519.87        68.50
1520.41        68.50
1520.81        68.50
1521.35        68.50
1521.89        68.50
1522.43        68.50
1522.84        68.50
1523.38        68.50
1523.92        68.50
1524.32        68.50
1524.85        68.50
1525.39        68.50
1525.93        68.50
1526.34        68.50
1526.88        68.50
1527.41        68.50
1527.82        68.50
1528.36        68.50
1528.90        68.50
1529.43        68.50
1529.85        68.50
1530.38        68.50
1530.92        68.50
1531.32        68.50
1531.85        68.50
1532.39        68.50
1532.94        68.50
1533.34        68.50
1533.89        68.50
1534.41        68.50
1534.83        68.50
1535.36        68.00
1535.90        68.00
1536.45        68.00
1536.84        68.50
1537.38        68.50
1537.92        68.50
1538.32        68.50
1538.86        68.00
1539.39        68.00
1539.93        68.00
1540.35        68.00
1540.89        68.00
1541.42        68.00
1541.82        68.00
1542.37        68.00
1542.91        68.00
1543.44        68.00
1543.84        68.00
1544.38        68.00
1544.92        68.00
1545.32        68.00
1545.86        68.00
1546.40        68.00
1546.95        68.00
1547.34        68.00
1547.89        68.00
1548.43        68.00
1548.82        68.00
1549.36        68.00
1549.90        68.00
1550.32        68.00
1550.85        68.00
1551.39        68.00
1551.93        68.00
1552.33        68.00
1552.87        68.00
1553.41        68.00
1553.81        68.00
1554.35        68.00
1554.88        68.00
1555.43        68.00
1555.83        68.00
1556.37        68.00
1556.92        68.00
1557.31        68.00
1557.85        68.00
1558.39        68.00
1558.93        68.00
1559.34        68.00
1559.87        68.00
1560.41        68.00
1560.82        68.00
1561.36        68.00
1561.92        68.00
1562.31        68.00
1562.85        68.00
1563.38        68.00
1563.92        68.00
1564.32        68.00
1564.86        68.00
1565.40        68.00
1565.81        68.00
1566.36        68.00
1566.89        68.00
1567.43        68.00
1567.82        68.00
1568.37        68.00
1568.90        68.00
1569.32        68.00
1569.84        68.00
1570.38        68.00
1570.94        68.00
1571.32        68.00
1571.88        68.00
1572.40        68.00
1572.80        68.00
1573.34        68.00
1573.88        68.00
1574.42        68.00
1574.84        68.00
1575.38        68.00
1575.92        68.00
1576.33        67.50
1576.86        68.00
1577.40        68.00
1577.92        67.50
1578.34        67.50
1578.88        67.50
1579.41        67.50
1579.81        67.50
1580.36        67.50
1580.88        67.50
1581.43        67.50
1581.84        67.50
1582.38        67.50
1582.91        67.50
1583.33        67.50
1583.86        67.50
1584.39        67.50
1584.81        67.50
1585.34        67.50
1585.88        67.50
1586.42        67.50
1586.82        67.50
1587.36        67.50
1587.90        67.50
1588.31        67.50
1588.84        67.50
1589.38        67.50
1589.91        67.50
1590.33        67.50
1590.86        67.50
1591.40        67.50
1591.81        67.50
1592.35        67.50
1592.89        67.50
1593.43        67.50
1593.82        67.50
1594.37        67.50
1594.91        67.50
1595.30        67.50
1595.84        67.50
1596.39        67.50
1596.91        67.50
1597.33        67.50
1597.86        67.50
1598.40        67.50
1598.80        67.50
1599.35        67.50
1599.89        67.50
1600.43        67.50
1600.82        67.50
1601.37        67.50
1601.91        67.50
1602.31        67.50
1602.85        67.50
1603.39        67.50
1603.93        67.50
1604.32        67.50
1604.86        67.50
1605.38        67.50
1605.93        67.50
1606.33        67.50
1606.87        67.50
1607.41        67.50
1607.81        67.50
1608.34        67.50
1608.89        67.50
1609.30        67.50
1609.83        67.50
1610.37        67.50
1610.91        67.50
1611.32        67.50
1611.86        67.50
1612.40        67.00
1612.80        67.50
1613.34        67.00
1613.88        67.50
1614.41        67.00
1614.81        67.00
1615.36        67.00
1615.90        67.00
1616.29        67.00
1616.83        67.00
1617.38        67.00
1617.92        67.00
1618.32        67.00
1618.87        67.00
1619.40        67.00
1619.79        67.00
1620.35        67.00
1620.88        67.00
1621.43        67.00
1621.84        67.00
1622.38        67.00
1622.91        67.00
1623.32        67.00
1623.86        67.00
1624.39        67.00
1624.80        67.00
1625.34        67.00
1625.87        67.00
1626.41        67.00
1626.82        67.00
1627.36        67.00
1627.90        67.00
1628.30        67.00
1628.84        67.00
1629.39        67.00
1629.80        67.00
1630.33        67.00
1630.87        67.00
1631.40        67.00
1631.79        67.00
1632.34        67.00
1632.87        67.00
1633.29        67.00
1633.83        67.00
1634.38        67.00
1634.91        67.00
1635.31        67.00
1635.84        67.00
1636.38        67.00
1636.79        67.00
1637.33        67.00
1637.88        67.00
1638.41        67.00
1638.80        67.00
1639.36        67.00
1639.90        67.00
1640.29        67.00
1640.83        67.00
1641.37        67.00
1641.90        67.00
1642.30        67.00
1642.84        67.00
1643.39        67.00
1643.79        67.00
1644.32        67.00
1644.88        67.00
1645.41        67.00
1645.81        67.00
1646.35        67.00
1646.89        67.00
1647.29        67.00
1647.83        67.00
1648.38        67.00
1648.91        67.00
1649.31        67.00
1649.85        67.00
1650.38        67.00
1650.80        67.00
1651.34        67.00
1651.87        66.50
1652.42        66.50
1652.82        66.50
1653.36        66.50
1653.89        66.50
1654.29        66.50
1654.84        66.50
1655.38        66.50
1655.91        66.50
1656.32        66.50
1656.86        66.50
1657.40        66.50
1657.80        66.50
1658.34        66.50
1658.87        66.50
1659.28        66.50
1659.82        66.50
1660.35        66.50
1660.89        66.50
1661.29        66.50
1661.84        66.50
1662.38        66.50
1662.78        66.50
1663.32        66.50
1663.86        66.50
1664.40        66.50
1664.80        66.50
1665.33        66.50
1665.87        66.50
1666.28        66.50
1666.82        66.50
1667.36        66.50
1667.90        66.50
1668.31        66.50
1668.84        66.50
1669.39        66.50
1669.78        66.50
1670.32        66.50
1670.85        66.50
1671.41        66.50
1671.80        66.50
1672.34        66.50
1672.89        66.50
1673.28        66.50
1673.83        66.50
1674.35        66.50
1674.90        66.50
1675.31        66.50
1675.83        66.50
1676.39      -127.00
1676.79        66.50
1677.33        66.50
1677.88        66.50
1678.27        66.50
1678.82        66.50
1679.35        66.50
1679.88        66.50
1680.29        66.50
1680.83        66.50
1681.36        66.50
1681.78        66.50
1682.32        66.50
1682.87        66.50
1683.27        66.50
1683.80        66.50
1684.34        66.50
1684.89        66.50
1685.29        66.50
1685.84        66.50
1686.37        66.50
1686.76        66.50
1687.32        66.50
1687.86        66.50
1688.39        66.50
1688.78        66.50
1689.34        66.50
1689.86        66.00
1690.27        66.00
1690.81        66.00
1691.36        66.00
1691.88        66.00
1692.30        66.00
1692.83        66.00
1693.38        66.00
1693.77        66.00
1694.31        66.00
1694.86        66.00
1695.38        66.00
1695.80        66.00
1696.32        66.00
1696.87        66.00
1697.27        66.00
1697.82        66.00
1698.34        66.00
1698.89        66.00
1699.29        66.00
1699.83        66.00
1700.37        66.00
1700.78        66.00
1701.32        66.00
1701.86        66.00
1702.39        66.00
1702.79        66.00
1703.34        66.00
1703.87        66.00
1704.28        66.00
1704.82        66.00
1705.36        66.00
1705.90        66.00
1706.30        66.00
1706.83        66.00
1707.37        66.00
1707.78        66.00
1708.32        66.00
1708.86        66.00
1709.26        66.00
1709.81        66.00
1710.34        66.00
1710.87        66.00
1711.28        66.00
1711.82        66.00
1712.36        66.00
1712.76        66.00
1713.31        66.00
1713.84        66.00
1714.38        66.00
1714.78        66.00
1715.31        66.00
1715.86        66.00
1716.27        66.00
1716.81        66.00
1717.35        66.00
1717.88        66.00
1718.29        66.00
1718.81        66.00
1719.36        66.00
1719.76        66.00
1720.30        66.00
1720.85        66.00
1721.39        66.00
1721.78        66.00
1722.32        66.00
1722.87        66.00
1723.27        66.00
1723.81        66.00
1724.33        66.00
1724.88        66.00
1725.29        66.00
1725.82        66.00
1726.37        66.00
1726.88        65.50
1727.30        65.50
1727.83        65.50
1728.37        65.50
1728.78        65.50
1729.31        65.50
1729.86        65.50
1730.25        65.50
1730.81        65.50
1731.34        65.50
1731.87        65.50
1732.28        65.50
1732.82        65.50
1733.36        65.50
1733.76        65.50
1734.30        65.50
1734.83        65.50
1735.39        65.50
1735.78        65.50
1736.32        65.50
1736.85        65.50
1737.26        65.50
1737.80        65.50
1738.34        65.50
1738.89        65.50
1739.27        65.50
1739.81        65.50
1740.36        65.50
1740.77        65.50
1741.30        65.50
1741.86        65.50
1742.26        65.50
1742.80        65.50
1743.33        65.50
1743.87        65.50
1744.27        65.50
1744.82        65.50
1745.35        65.50
1745.76        65.50
1746.29        65.50
1746.84        65.50
1747.37        65.50
1747.79        65.50
1748.31        65.50
1748.87        65.50
1749.25        65.50
1749.81        65.50
1750.34        65.50
1750.87        65.50
1751.28        65.50
1751.82        65.50
1752.36        65.50
1752.76        65.50
1753.30        65.50
1753.84        65.50
1754.37        65.50
1754.78        65.50
1755.32        65.50
1755.85        65.50
1756.27        65.50
1756.80        65.50
1757.34        65.50
1757.75        65.50
1758.29        65.50
1758.82        65.50
1759.37        65.00
1759.76        65.50
1760.30        65.50
1760.85        65.50
1761.24        65.50
1761.79        65.00
1762.32        65.00
1762.86        65.50
1763.26        65.50
1763.80        65.00
1764.34        65.00
1764.75        65.00
1765.29        65.00
1765.83        65.00
1766.37        65.00
1766.76        65.00
1767.30        65.00
1767.84        65.00
1768.24        65.00
1768.80        65.00
1769.33        65.00
1769.87        65.00
1770.27        65.00
1770.81        65.00
1771.35        65.00
1771.76        65.00
1772.30        65.00
1772.83        65.00
1773.36        65.00
1773.77        65.00
1774.30        65.00
1774.85        65.00
1775.26        65.00
1775.79        65.00
1776.33        65.00
1776.87        65.00
1777.27        65.00
1777.82        65.00
1778.36        65.00
1778.75        65.00
1779.29        65.00
1779.84        65.00
1780.37        65.00
1780.77        65.00
1781.32        65.00
1781.86        65.00
1782.25        65.00
1782.79        65.00
1783.34        65.00
1783.74        65.00
1784.27        65.00
1784.82        65.00
1785.35        65.00
1785.77        65.00
1786.30        65.00
1786.84        65.00
1787.24        65.00
1787.77        65.00
1788.31        65.00
1788.85        65.00
1789.26        65.00
1789.79        65.00
1790.33        65.00
1790.74        65.00
1791.28        65.00
1791.82        65.00
1792.35        64.50
1792.76        64.50
1793.31        64.50
1793.84        64.50
1794.25        64.50
1794.78        64.50
1795.32        65.00
1795.86        64.50
1796.26        64.50
1796.79        64.50
1797.34        64.50
1797.73        64.50
1798.28        64.50
1798.81        64.50
1799.37        64.50
1799.76        64.50
1800.30        64.50
1800.84        64.50
1801.24        64.50
1801.80        64.50
1802.35        64.50
1802.74        64.50
1803.28        64.50
1803.82        64.50
1804.35        64.50
1804.76        64.50
1805.31        64.50
1805.84        64.50
1806.24        64.50
1806.79        64.50
1807.33        64.50
1807.86        64.50
1808.26        64.50
1808.79        64.50
1809.33        64.50
1809.75        64.50
1810.29        64.50
1810.82        64.50
1811.37        64.50
1811.77        64.50
1812.30        64.50
1812.85        64.50
1813.24        64.50
1813.79        64.50
1814.32        64.50
1814.86        64.50
1815.26        64.50
1815.80        64.50
1816.35        64.50
1816.74        64.50
1817.29        64.50
1817.83        64.50
1818.37        64.50
1818.77        64.50
1819.30        64.50
1819.84        64.50
1820.25        64.50
1820.78        64.50
1821.33        64.50
1821.73        64.50
1822.28        64.00
1822.82        64.50
1823.34        64.00
1823.75        64.50
1824.29        64.50
1824.82        64.50
1825.22        64.00
1825.78        64.50
1826.31        64.00
1826.84        64.00
1827.24        64.00
1827.80        64.00
1828.33        64.00
1828.74        64.00
1829.28        64.00
1829.80        64.00
1830.36        64.00
1830.75        64.00
1831.29        64.00
1831.82        64.00
1832.23        64.00
1832.76        64.00
1833.31        64.00
1833.85        64.00
1834.25        64.00
1834.79        64.00
1835.33        64.00
1835.75        64.00
1836.27        64.00
1836.83        64.00
1837.22        64.00
1837.76        64.00
1838.31        64.00
1838.83        64.00
1839.24        64.00
1839.78        64.00
1840.33        64.00
1840.72        64.00
1841.26        64.00
1841.81        64.00
1842.34        64.00
1842.75        64.00
1843.30        64.00
1843.83        64.00
1844.23        64.00
1844.77        64.00
1845.31        64.00
1845.84        64.00
1846.25        64.00
1846.78        64.00
1847.33        64.00
1847.74        64.00
1848.26        64.00
1848.82        64.00
1849.36        64.00
1849.75        64.00
1850.28        64.00
1850.83        64.00
1851.23        64.00
1851.77        64.00
1852.30        64.00
1852.85        64.00
1853.25        64.00
1853.80        64.00
1854.33        64.00
1854.73        64.00
1855.28        64.00
1855.81        64.00
1856.35        64.00
1856.75        63.50
1857.30        63.50
1857.83        63.50
1858.23        63.50
1858.77        63.50
1859.31        63.50
1859.85        63.50
1860.24        63.50
1860.78        63.50
1861.32        63.50
1861.75        63.50
1862.28        63.50
1862.82        63.50
1863.23        63.50
1863.78        63.50
1864.30        63.50
1864.85        63.50
1865.26        63.50
1865.79        63.50
1866.32        63.50
1866.73        63.50
1867.27        63.50
1867.81        63.50
1868.36        63.50
1868.75        63.50
1869.30        63.50
1869.83        63.50
1870.24        63.50
1870.77        63.50
1871.30        63.50
1871.72        63.50
1872.25        63.50
1872.80        63.50
1873.33        63.50
1873.73        63.50
1874.28        63.50
1874.81        63.50
1875.21        63.50
1875.75        63.50
1876.30        63.50
1876.84        63.50
1877.24        63.50
1877.77        63.50
1878.30        63.50
1878.71        63.50
1879.26        63.50
1879.80        63.50
1880.34        63.50
1880.74        63.50
1881.28        63.50
1881.82        63.50
1882.22        63.50
1882.76        63.50
1883.30        63.50
1883.84        63.50
1884.24        63.50
1884.78        63.50
1885.33        63.50
1885.74        63.50
1886.27        63.50
1886.80        63.50
1887.22        63.50
1887.74        63.50
1888.30        63.50
1888.83        63.50
1889.22        63.50
1889.76        63.00
1890.30        63.50
1890.72        63.00
1891.25        63.00
1891.80        63.00
1892.33        63.00
1892.72        63.00
1893.26        63.00
1893.81        63.00
1894.22        63.00
1894.75        63.00
1895.30        63.00
1895.83        63.00
1896.23        63.00
1896.78        63.00
1897.32        63.00
1897.71        63.00
1898.24        63.00
1898.79        63.00
1899.33        63.00
1899.73        63.00
1900.26        63.00
1900.81        63.00
1901.21        63.00
1901.75        63.00
1902.29        63.00
1902.83        63.00
1903.24        63.00
1903.76        63.00
1904.31        63.00
1904.71        63.00
1905.25        63.00
1905.80        63.00
1906.33        63.00
1906.73        63.00
1907.28        63.00
1907.82        63.00
1908.21        63.00
1908.75        63.00
1909.30        63.00
1909.82        63.00
1910.25        63.00
1910.78        63.00
1911.31        63.00
1911.72        63.00
1912.25        63.00
1912.79        63.00
1913.20        63.00
1913.75        63.00
1914.28        63.00
1914.81        63.00
1915.22        63.00
1915.76        63.00
1916.30        63.00
1916.70        63.00
1917.23        63.00
1917.78        63.00
1918.33        63.00
1918.72        63.00
1919.26        63.00
1919.80        63.00
1920.19        63.00
1920.73        63.00
1921.28        63.00
1921.70        63.00
1922.24        63.00
1922.77        62.50
1923.31        62.50
1923.71        63.00
1924.25        63.00
1924.79        62.50
1925.20        62.50
1925.74        62.50
1926.28        62.50
1926.81        62.50
1927.22        62.50
1927.76        62.50
1928.29        62.50
1928.71        62.50
1929.24        62.50
1929.77        62.50
1930.31        62.50
1930.73        62.50
1931.25        62.50
1931.80        62.50
1932.19        62.50
1932.74        62.50
1933.27        62.50
1933.81        62.50
1934.21        62.50
1934.76        62.50
1935.30        62.50
1935.71        62.50
1936.24        62.50
1936.78        62.50
1937.31        62.50
1937.73        62.50
1938.26        62.50
1938.81        62.50
1939.20        62.50
1939.74        62.50
1940.29        62.50
1940.82        62.50
1941.23        62.50
1941.75        62.50
1942.30        62.50
1942.70        62.50
1943.25        62.50
1943.79        62.50
1944.32        62.50
1944.73        62.50
1945.26        62.50
1945.80        62.50
1946.21        62.50
1946.74        62.50
1947.29        62.50
1947.68        62.50
1948.22        62.50
1948.76        62.50
1949.30        62.50
1949.71        62.50
1950.24        62.50
1950.78        62.50
1951.18        62.50
1951.73        62.50
1952.27        62.50
1952.82        62.50
1953.21        62.50
1953.76        62.50
1954.29        62.50
1954.69        62.50
1955.22        62.50
1955.76        62.50
1956.31        62.50
1956.71        62.00
1957.26        62.00
1957.79        62.00
1958.20        62.00
1958.72        62.00
1959.27        62.00
1959.81        62.00
1960.21        62.00
1960.76        62.00
1961.28        62.00
1961.69        62.00
1962.22        62.00
1962.78        62.00
1963.31        62.00
1963.71        62.00
1964.26        62.00
1964.79        62.00
1965.20        62.00
1965.74        62.00
1966.28        62.00
1966.80        62.00
1967.23        62.00
1967.76        62.00
1968.29        62.00
1968.70        62.00
1969.24        62.00
1969.78        62.00
1970.31        62.00
1970.72        62.00
1971.26        62.00
1971.81        62.00
1972.20        62.00
1972.75        62.00
1973.28        62.00
1973.82        62.00
1974.22        62.00
1974.76        62.00
1975.30        62.00
1975.69        62.00
1976.23        62.00
1976.78        62.00
1977.18        62.00
1977.73        62.00
1978.26        62.00
1978.79        62.00
1979.21        62.00
1979.74        62.00
1980.28        62.00
1980.69        62.00
1981.22        62.00
1981.76        62.00
1982.31        62.00
1982.72        62.00
1983.26        62.00
1983.80        62.00
1984.19        62.00
1984.73        62.00
1985.28        62.00
1985.68        62.00
1986.22        62.00
1986.75        62.00
1987.30        62.00
1987.70        62.00
1988.24        62.00
1988.78        62.00
1989.19        62.00
1989.72        62.00
1990.26        62.00
1990.80        62.00
1991.20        62.00
1991.74        61.50
1992.28        61.50
1992.69        61.50
1993.23        61.50
1993.76        61.50
1994.29        61.50
1994.70        61.50
1995.24        61.50
1995.79        61.50
1996.18        61.50
1996.72        61.50
1997.26        61.50
1997.79        61.50
1998.20        61.50
1998.74        61.50
1999.28        61.50
1999.68        61.50
2000.23        61.50
2000.76        61.50
2001.30        61.50
2001.70        61.50
2002.25        61.50
2002.78        61.50
2003.18        61.50
2003.74        61.50
2004.27        61.50
2004.81        61.50
2005.21        61.50
2005.74        61.50
2006.28        61.50
2006.68        61.50
2007.23        61.50
2007.77        61.50
2008.31        61.50
2008.71        61.50
2009.24        61.50
2009.78        61.50
2010.20        61.50
2010.72        61.50
2011.26        61.50
2011.67        61.50
2012.22        61.50
2012.75        61.50
2013.29        61.50
2013.69        61.50
2014.23        61.50
2014.78        61.50
2015.17        61.50
2015.72        61.50
2016.24        61.50
2016.79        61.50
2017.20        61.50
2017.73        61.50
2018.28        61.50
2018.67        61.50
2019.21        61.50
2019.74        61.50
2020.29        61.50
2020.69        61.50
2021.23        61.50
2021.78        61.50
2022.18        61.50
2022.71        61.50
2023.26        61.50
2023.79        61.50
2024.20        61.50
2024.73        61.00
2025.26        61.50
2025.67        61.50
2026.21        61.00
2026.76        61.00
2027.29        61.00
2027.70        61.00
2028.24        61.00
2028.77        61.00
2029.18        61.00
2029.71        61.00
2030.25        61.00
2030.80        61.00
2031.20        61.00
2031.73        61.00
2032.28        61.00
2032.68        61.00
2033.23        61.00
2033.75        61.00
2034.29        61.00
2034.71        61.00
2035.24        61.00
2035.78        61.00
2036.17        61.00
2036.72        61.00
2037.26        61.00
2037.65        61.00
2038.20        61.00
2038.74        61.00
2039.28        61.00
2039.68        61.00
2040.23        61.00
2040.76        61.00
2041.16        61.00
2041.71        61.00
2042.25        61.00
2042.79        61.00
2043.21        61.00
2043.73        61.00
2044.28        61.00
2044.68        61.00
2045.22        61.00
2045.76        61.00
2046.16        61.00
2046.71        61.00
2047.24        61.00
2047.77        61.00
2048.17        61.00
2048.72        61.00
2049.25        61.00
2049.66        61.00
2050.20        61.00
2050.74        61.00
2051.29        61.00
2051.68        61.00
2052.21        61.00
2052.75        61.00
2053.17        61.00
2053.70        61.00
2054.24        61.00
2054.77        61.00
2055.18        61.00
2055.73        61.00
2056.26        61.00
2056.67        61.00
2057.20        61.00
2057.74        61.00
2058.29        61.00
2058.68        61.00
2059.23        61.00
2059.76        61.00
2060.18        60.50
2060.70        61.00
2061.24        60.50
2061.78        60.50
2062.19        60.50
2062.71        60.50
2063.26        60.50
2063.67        60.50
2064.20        60.50
2064.74        60.50
2065.28        60.50
2065.69        60.50
2066.23        60.50
2066.76        60.50
2067.17        60.50
2067.71        60.50
2068.24        60.50
2068.78        60.50
2069.18        60.50
2069.72        60.50
2070.26        60.50
2070.67        60.50
2071.21        60.50
2071.75        60.50
2072.16        60.50
2072.70        60.50
2073.23        60.50
2073.78        60.50
2074.17        60.50
2074.72        60.50
2075.25        60.50
2075.65        60.50
2076.18        60.50
2076.72        60.50
2077.26        60.50
2077.68        60.50
2078.21        60.50
2078.75        60.50
2079.15        60.50
2079.69        60.50
2080.23        60.50
2080.77        60.50
2081.18        60.50
2081.71        60.50
2082.24        60.50
2082.66        60.50
2083.19        60.50
2083.74        60.50
2084.27        60.50
2084.68        60.50
2085.21        60.50
2085.76        60.50
2086.16        60.50
2086.70        60.50
2087.24        60.50
2087.77        60.50
2088.17        60.50
2088.72        60.50
2089.26        60.50
2089.66        60.50
2090.20        60.50
2090.74        60.50
2091.28        60.50
2091.68        60.50
2092.22        60.00
2092.76        60.50
2093.16        60.50
2093.70        60.00
2094.24        60.00
2094.78        60.50
2095.17        60.00
2095.72        60.00
2096.26        60.00
2096.65        60.00
2097.19        60.00
2097.75        60.00
2098.28        60.00
2098.68        60.00
2099.23        60.00
2099.76        60.00
2100.15        60.00
2100.68        60.00
2101.22        60.00
2101.64        60.00
2102.18        60.00
2102.73        60.00
2103.27        60.00
2103.67        60.00
2104.21        60.00
2104.75        60.00
2105.15        60.00
2105.69        60.00
2106.23        60.00
2106.77        60.00
2107.17        60.00
2107.72        60.00
2108.25        60.00
2108.66        60.00
2109.19        60.00
2109.73        60.00
2110.27        60.00
2110.68        60.00
2111.21        60.00
2111.74        60.00
2112.16        60.00
2112.70        60.00
2113.23        60.00
2113.76        60.00
2114.17        60.00
2114.72        60.00
2115.24        60.00
2115.65        60.00
2116.21        60.00
2116.74        60.00
2117.14        60.00
2117.68        60.00
2118.23        60.00
2118.76        60.00
2119.16        60.00
2119.70        60.00
2120.25        60.00
2120.65        60.00
2121.20        60.00
2121.73        60.00
2122.27        60.00
2122.68        60.00
2123.21        60.00
2123.75        60.00
2124.15        60.00
2124.70        60.00
2125.23        60.00
2125.67        60.00
2126.17        60.00
2126.72        60.00
2127.26        60.00
2127.67        60.00
2128.20        60.00
2128.75        60.00
2129.14        60.00
2129.68        59.50
2130.22        59.50
2130.76        59.50
2131.18        59.50
2131.71        59.50
2132.25        59.50
2132.66        59.50
2133.20        59.50
2133.73        59.50
2134.13        59.50
2134.67        59.50
2135.22        59.50
2135.74        59.50
2136.16        59.50
2136.70        59.50
2137.23        59.50
2137.64        59.50
2138.17        59.50
2138.72        59.50
2139.25        59.50
2139.67        59.50
2140.20        59.50
2140.73        59.50
2141.14        59.50
2141.68        59.50
2142.22        59.50
2142.76        59.50
2143.16        59.50
2143.70        59.50
2144.24        59.50
2144.65        59.50
2145.19        59.50
2145.72        59.50
2146.25        59.50
2146.65        59.50
2147.18        59.50
2147.72        59.50
2148.14        59.50
2148.68        59.50
2149.22        59.50
2149.76        59.50
2150.17        59.50
2150.71        59.50
2151.24        59.50
2151.64        59.50
2152.17        59.50
2152.70        59.50
2153.25        59.50
2153.66        59.50
2154.20        59.50
2154.74        59.50
2155.14        59.50
2155.67        59.50
2156.22        59.50
2156.76        59.50
2157.16        59.50
2157.70        59.50
2158.23        59.50
2158.64        59.50
2159.17        59.50
2159.72        59.50
2160.26        59.50
2160.65        59.50
2161.20        59.50
2161.75        59.50
2162.16        59.50
2162.70        59.00
2163.24        59.00
2163.64        59.00
2164.18        59.00
2164.71        59.00
2165.25        59.50
2165.66        59.00
2166.20        59.00
2166.73        59.00
2167.14        59.00
2167.68        59.00
2168.21        59.00
2168.75        59.00
2169.16        59.00
2169.69        59.00
2170.23        59.00
2170.64        59.00
2171.17        59.00
2171.71        59.00
2172.25        59.00
2172.65        59.00
2173.19        59.00
2173.74        59.00
2174.14        59.00
2174.67        59.00
2175.22        59.00
2175.62        59.00
2176.15        59.00
2176.70        59.00
2177.24        59.00
2177.64        59.00
2178.19        59.00
2178.72        59.00
2179.12        59.00
2179.66        59.00
2180.20        59.00
2180.74        59.00
2181.15        59.00
2181.68        59.00
2182.22        59.00
2182.62        59.00
2183.15        59.00
2183.70        59.00
2184.24        59.00
2184.65        59.00
2185.18        59.00
2185.73        59.00
2186.14        59.00
2186.67        59.00
2187.19        59.00
2187.74        59.00
2188.15        59.00
2188.69        59.00
2189.23        59.00
2189.63        59.00
2190.18        59.00
2190.71        59.00
2191.25        59.00
2191.65        59.00
2192.18        59.00
2192.73        59.00
2193.12        59.00
2193.67        59.00
2194.21        59.00
2194.74        59.00
2195.14        59.00
2195.69        59.00
2196.22        59.00
2196.63        59.00
2197.17        59.00
2197.71        58.50
2198.24        59.00
2198.64        58.50
2199.19        58.50
2199.73        58.50
2200.13        58.50
2200.67        58.50
2201.21        58.50
2201.61        58.50
2202.15        58.50
2202.70        58.50
2203.22        58.50
2203.64        58.50
2204.17        58.50
2204.71        58.50
2205.12        58.50
2205.66        58.50
2206.19        58.50
2206.73        58.50
2207.14        58.50
2207.66        58.50
2208.21        58.50
2208.62        58.50
2209.15        58.50
2209.70        58.50
2210.24        58.50
2210.64        58.50
2211.18        58.50
2211.72        58.50
2212.12        58.50
2212.65        58.50
2213.19        58.50
2213.73        58.50
2214.13        58.50
2214.68        58.50
2215.21        58.50
2215.61        58.50
2216.15        58.50
2216.69        58.50
2217.24        58.50
2217.64        58.50
2218.16        58.50
2218.70        58.50
2219.25        58.50
2219.64        58.50
2220.18        58.50
2220.72        58.50
2221.14        58.50
2221.69        58.50
2222.23        58.50
2222.64        58.50
2223.17        58.50
2223.71        58.50
2224.11        58.50
2224.65        58.50
2225.18        58.50
2225.73        58.50
2226.14        58.50
2226.68        58.50
2227.21        58.50
2227.61        58.50
2228.15        58.50
2228.69        58.50
2229.22        58.50
2229.63        58.50
2230.17        58.50
2230.70        58.50
2231.10        58.50
2231.65        58.50
2232.19        58.50
2232.73        58.00
2233.12        58.50
2233.67        58.50
2234.22        58.50
2234.61        58.00
2235.16        58.00
2235.70        58.00
2236.23        58.00
2236.64        58.00
2237.18        58.00
2237.70        58.00
2238.24        58.00
2238.63        58.00
2239.18        58.00
2239.71        58.00
2240.13        58.00
2240.66        58.00
2241.21        58.00
2241.60        58.00
2242.15        58.00
2242.69        58.00
2243.22        58.00
2243.62        58.00
2244.16        58.00
2244.71        58.00
2245.10        58.00
2245.65        58.00
2246.19        58.00
2246.73        58.00
2247.12        58.00
2247.66        58.00
2248.21        58.00
2248.61        58.00
2249.15        58.00
2249.69        58.00
2250.23        58.00
2250.63        58.00
2251.17        58.00
2251.71        58.00
2252.11        58.00
2252.66        58.00
2253.19        58.00
2253.72        58.00
2254.13        58.00
2254.68        58.00
2255.21        58.00
2255.62        58.00
2256.15        58.00
2256.69        58.00
2257.23        58.00
2257.63        58.00
2258.17        58.00
2258.71        58.00
2259.12        58.00
2259.65        58.00
2260.19        58.00
2260.59        58.00
2261.13        58.00
2261.68        58.00
2262.21        58.00
2262.62        58.00
2263.14        58.00
2263.69        58.00
2264.09        58.00
2264.63        58.00
2265.17        58.00
2265.72        58.00
2266.12        58.00
2266.65        58.00
2267.19        58.00
2267.59        58.00
2268.13        58.00
2268.68        58.00
2269.21        57.50
2269.61        58.00
2270.15        58.00
2270.69        57.50
2271.09        57.50
2271.63        57.50
2272.18        57.50
2272.72        57.50
2273.11        57.50
2273.66        57.50
2274.19        57.50
2274.59        57.50
2275.13        57.50
2275.68        57.50
2276.22        57.50
2276.62        57.50
2277.17        57.50
2277.69        57.50
2278.10        57.50
2278.64        57.50
2279.21        57.50
2279.71        57.50
2280.13        57.50
2280.67        57.50
2281.21        57.50
2281.62        57.50
2282.17        57.50
2282.68        57.50
2283.09        57.50
2283.64        57.50
2284.18        57.50
2284.71        57.50
2285.12        57.50
2285.65        57.50
2286.20        57.50
2286.60        57.50
2287.14        57.50
2287.68        57.50
2288.22        57.50
2288.62        57.50
2289.15        57.50
2289.70        57.50
2290.10        57.50
2290.64        57.50
2291.17        57.50
2291.72        57.50
2292.12        57.50
2292.65        57.50
2293.19        57.50
2293.60        57.50
2294.15        57.50
2294.67        57.50
2295.22        57.50
2295.62        57.50
2296.16        57.50
2296.69        57.50
2297.11        57.50
2297.65        57.50
2298.19        57.50
2298.58        57.50
2299.12        57.50
2299.67        57.50
2300.21        57.50
2300.60        57.50
2301.14        57.50
2301.68        57.50
2302.09        57.50
2302.61        57.50
2303.17      -127.00
2303.71        57.50
2304.10        57.50
2304.65        57.50
2305.19        57.50
2305.61        57.00
2306.14        57.50
2306.68        57.00
2307.08        57.00
2307.61        57.00
2308.16        57.00
2308.69        57.00
2309.11        57.00
2309.65        57.00
2310.19        57.00
2310.59        57.00
2311.12        57.00
2311.66        57.00
2312.20        57.00
2312.60        57.00
2313.15        57.00
2313.68        57.00
2314.08        57.00
2314.62        57.00
2315.16        57.00
2315.71        57.00
2316.10        57.00
2316.64        57.00
2317.19        57.00
2317.59        57.00
2318.13        57.00
2318.67        57.00
2319.21        57.00
2319.61        57.00
2320.14        57.00
2320.69        57.00
2321.09        57.00
2321.63        57.00
2322.18        57.00
2322.71        57.00
2323.10        57.00
2323.65        57.00
2324.19        57.00
2324.59        57.00
2325.13        57.00
2325.66        57.00
2326.21        57.00
2326.59        57.00
2327.13        57.00
2327.67        57.00
2328.20        57.00
2328.60        57.00
2329.16        57.00
2329.70        57.00
2330.10        57.00
2330.64        57.00
2331.19        57.00
2331.58        57.00
2332.12        57.00
2332.66        57.00
2333.20        57.00
2333.60        57.00
2334.14        57.00
2334.69        57.00
2335.08        57.00
2335.62        57.00
2336.17        57.00
2336.71        57.00
2337.10        57.00
2337.65        57.00
2338.21        57.00
2338.59        57.00
2339.13        57.00
2339.67        57.00
2340.19        57.00
2340.61        57.00
2341.14        57.00
2341.70        57.00
2342.11        57.00
2342.64        57.00
2343.18        57.00
2343.59        57.00
2344.13        57.00
2344.66        56.50
2345.20        57.00
2345.61        57.00
2346.14        56.50
2346.68        56.50
2347.09        56.50
2347.63        56.50
2348.17        56.50
2348.71        56.50
2349.10        56.50
2349.65        56.50
2350.18        56.50
2350.59        56.50
2351.12        56.50
2351.66        56.50
2352.07        56.50
2352.60        56.50
2353.15        56.50
2353.69        56.50
2354.09        56.50
2354.62        56.50
2355.17        56.50
2355.56        56.50
2356.11        56.50
2356.65        56.50
2357.18        56.50
2357.59        56.50
2358.13        56.50
2358.67        56.50
2359.08        56.50
2359.61        56.50
2360.15        56.50
2360.69        56.50
2361.09        56.50
2361.63        56.50
2362.16        56.50
2362.57        56.50
2363.25        56.50
2363.64        56.50
2364.18        56.50
2364.87        56.50
2365.13        56.50
2365.67        56.50
2366.07        56.50
2366.61        56.50
2367.16        56.50
2367.69        56.50
2368.09        56.50
2368.63        56.50
2369.17        56.50
2369.57        56.50
2370.12        56.50
2370.65        56.50
2371.20        56.50
2371.59        56.50
2372.14        56.50
2372.68        56.50
2373.07        56.50
2373.62        56.50
2374.15        56.50
2374.68        56.50
2375.08        56.50
2375.64        56.50
2376.18        56.50
2376.57        56.50
2377.12        56.50
2377.65        56.50
2378.20        56.50
2378.60        56.50
2379.14        56.50
2379.68        56.50
2380.08        56.50
2380.62        56.50
2381.15        56.50
2381.56        56.50
2382.10        56.00
2382.64        56.50
2383.18        56.00
2383.59        56.00
2384.12        56.00
2384.66        56.50
2385.07        56.00
2385.61        56.00
2386.15        56.00
2386.68        56.00
2387.09        56.00
2387.63        56.00
2388.17        56.00
2388.57        56.00
2389.12        56.00
2389.65        56.00
2390.07        56.00
2390.60        56.00
2391.13        56.00
2391.68        56.00
2392.08        56.00
2392.63        56.00
2393.16        56.00
2393.56        56.00
2394.11        56.00
2394.65        56.00
2395.19      -127.00
2395.58        56.00
2396.12        56.00
2396.66        56.00
2397.07        56.00
2397.62        56.00
2398.16        56.00
2398.56        56.00
2399.10        56.00
2399.63        56.00
2400.18        56.00
2400.58        56.00
2401.12        56.00
2401.69        56.00
2402.09        56.00
2402.62        56.00
2403.17        56.00
2403.56        56.00
2404.10        56.00
2404.65        56.00
2405.18        56.00
2405.59        56.00
2406.12        56.00
2406.66        56.00
2407.07        56.00
2407.61        56.00
2408.14        56.00
2408.68        56.00
2409.09        56.00
2409.63        56.00
2410.16        56.00
2410.56        56.00
2411.22        56.00
2411.64        56.00
2412.18        56.00
2412.59        56.00
2413.12        56.00
2413.67        56.00
2414.06        56.00
2414.61        56.00
2415.15        56.00
2415.55        56.00
2416.08        56.00
2416.63        56.00
2417.17        56.00
2417.56        56.00
2418.11        56.00
2418.65        56.00
2419.06        56.00
2419.59        56.00
2420.13        56.00
2420.66        56.00
2421.07        56.00
2421.62        56.00
2422.16        55.50
2422.56        56.00
2423.09        55.50
2423.63        55.50
2424.16        55.50
2424.57        55.50
2425.11        55.50
2425.66        55.50
2426.05        55.50
2426.59        55.50
2427.13        55.50
2427.67        55.50
2428.08        55.50
2428.61        55.50
2429.15        55.50
2429.55        55.50
2430.10        55.50
2430.63        55.50
2431.17        55.50
2431.57        55.50
2432.10        55.50
2432.65        55.50
2433.06        55.50
2433.60        55.50
2434.12        55.50
2434.67        55.50
2435.07        55.50
2435.61        55.50
2436.15        55.50
2436.55        55.50
2437.10        55.50
2437.64        55.50
2438.18        55.50
2438.58        55.50
2439.12        55.50
2439.65        55.50
2440.06        55.50
2440.60        55.50
2441.14        55.50
2441.55        55.50
2442.08        55.50
2442.62        55.50
2443.15        55.50
2443.56        55.50
2444.11        55.50
2444.63        55.50
2445.04        55.50
2445.58        55.50
2446.12        55.50
2446.66        55.50
2447.06        55.50
2447.60        55.50
2448.14        55.50
2448.55        55.50
2449.08        55.50
2449.62        55.50
2450.15        55.50
2450.57        55.50
2451.09        55.50
2451.64        55.50
2452.04        55.50
2452.59        55.50
2453.13        55.50
2453.65        55.50
2454.07        55.50
2454.59        55.50
2455.13        55.50
2455.54        55.50
2456.08        55.50
2456.63        55.50
2457.16        55.50
2457.57        55.50
2458.10        55.50
2458.64        55.50
2459.04        55.50
2459.59        55.50
2460.13        55.50
2460.67        55.00
2461.06        55.50
2461.62        55.50
2462.15        55.00
2462.57        55.00
2463.09        55.00
2463.64        55.00
2464.04        55.00
2464.58        55.00
2465.13        55.00
2465.67        55.00
2466.07        55.00
2466.60        55.00
2467.14        55.00
2467.55        55.00
2468.09        55.00
2468.63        55.00
2469.17        55.00
2469.56        55.00
2470.10        55.00
2470.64        55.00
2471.04        55.00
2471.59        55.00
2472.13        55.00
2472.67        55.00
2473.07        55.00
2473.61        55.00
2474.15        55.00
2474.55        55.00
2475.09        55.00
2475.63        55.00
2476.16        55.00
2476.56        55.00
2477.11        55.00
2477.65        55.00
2478.05        55.00
2478.59        55.00
2479.13        55.00
2479.54        55.00
2480.06        55.00
2480.60        55.00
2481.15        55.00
2481.55        55.00
2482.09        55.00
2482.64        55.00
2483.03        55.00
2483.58        55.00
2484.10        55.00
2484.65        55.00
2485.05        55.00
2485.59        55.00
2486.13        55.00
2486.53        55.00
2487.08        55.00
2487.60        55.00
2488.15        55.00
2488.55        55.00
2489.10        55.00
2489.62        55.00
2490.03        55.00
2490.57        55.00
2491.12        55.00
2491.64        55.00
2492.05        55.00
2492.60        55.00
2493.13        55.00
2493.54        55.00
2494.07        55.00
2494.61        55.00
2495.16        55.00
2495.56        55.00
2496.09        55.00
2496.63        55.00
2497.04        55.00
2497.58        55.00
2498.12        55.00
2498.65        55.00
2499.05        55.00
2499.59        55.00
2500.13        55.00
2500.54        55.00
2501.08        55.00
2501.63        54.50
2502.14        55.00
2502.57        54.50
2503.09        54.50
2503.63        54.50
2504.03        54.50
2504.58        54.50
2505.12        54.50
2505.52        54.50
2506.07        54.50
2506.59        54.50
2507.13        54.50
2507.53        54.50
2508.07        54.50
2508.61        54.50
2509.03        54.50
2509.57        54.50
2510.09        54.50
2510.64        54.50
2511.03        54.50
2511.58        54.50
2512.13        54.50
2512.53        54.50
2513.07        54.50
2513.59        54.50
2514.14        54.50
2514.54        54.50
2515.08        54.50
2515.63        54.50
2516.02        54.50
2516.56        54.50
2517.11        54.50
2517.65        54.50
2518.05        54.50
2518.59        54.50
2519.12        54.50
2519.52        54.50
2520.07        54.50
2520.61        54.50
2521.15        54.50
2521.57        54.50
2522.09        54.50
2522.64        54.50
2523.04        54.50
2523.58        54.50
2524.12        54.50
2524.53        54.50
2525.05        54.50
2525.60        54.50
2526.14        54.50
2526.54        54.50
2527.08        54.50
2527.62        54.50
2528.02        54.50
2528.57        54.50
2529.11        54.50
2529.63        54.50
2530.05        54.50
2530.58        54.50
2531.13        54.50
2531.52        54.50
2532.07        54.50
2532.61        54.50
2533.14        54.50
2533.54        54.50
2534.09        54.50
2534.63        54.50
2535.03        54.50
2535.58        54.50
2536.10        54.50
2536.65        54.50
2537.05        54.50
2537.59        54.50
2538.13        54.50
2538.53        54.50
2539.07        54.50
2539.60        54.50
2540.01        54.50
2540.56        54.50
2541.10        54.50
2541.62        54.50
2542.02        54.00
2542.57        54.00
2543.11        54.00
2543.52        54.50
2544.04        54.50
2544.59        54.00
2545.13        54.50
2545.54        54.00
2546.06        54.00
2546.61        54.00
2547.01        54.00
2547.56        54.00
2548.10        54.00
2548.62        54.00
2549.03        54.00
2549.57        54.00
2550.11        54.00
2550.51        54.00
2551.05        54.00
2551.60        54.00
2552.14        54.00
2552.54        54.00
2553.07        54.00
2553.62        54.00
2554.02        54.00
2554.55        54.00
2555.09        54.00
2555.64        54.00
2556.04        54.00
2556.58        54.00
2557.12        54.00
2557.52        54.00
2558.06        54.00
2558.59        54.00
2559.13        54.00
2559.53        54.00
2560.08        54.00
2560.62        54.00
2561.02        54.00
2561.57        54.00
2562.09        54.00
2562.63        54.00
2563.03        54.00
2563.58        54.00
2564.11        54.00
2564.53        54.00
2565.07        54.00
2565.59        54.00
2566.01        54.00
2566.53        54.00
2567.08        54.00
2567.62        54.00
2568.02        54.00
2568.57        54.00
2569.11        54.00
2569.51        54.00
2570.05        54.00
2570.58        54.00
2571.12        54.00
2571.53        54.00
2572.07        54.00
2572.61        54.00
2573.01        54.00
2573.55        54.00
2574.09        54.00
2574.61        54.00
2575.03        54.00
2575.56        54.00
2576.10        54.00
2576.50        54.00
2577.04        54.00
2577.59        54.00
2578.13        54.00
2578.53        54.00
2579.07        54.00
2579.60        54.00
2580.00        54.00
2580.54        54.00
2581.08        54.00
2581.51        54.00
2582.05        54.00
2582.58        54.00
2583.13        54.00
2583.53        54.00
2584.07        54.00
2585.39        53.50
2585.93        54.00
2586.34        53.50
2586.88        53.50
2587.42        53.50
2587.82        53.50
2588.36        53.50
2588.90        53.50
2589.44        53.50
2589.83        53.50
2590.37        53.50
2590.91        53.50
2591.31        53.50
2591.85        53.50
2592.37      -127.00
2592.93        53.50
2593.33        53.50
2593.87        53.50
2594.41        53.50
2594.94        53.50
2595.36        53.50
2595.90        53.50
2596.42        53.50
2596.84        53.50
2597.39        53.50
2597.93        53.50
2598.32        53.50
2598.86        53.50
2599.40        53.50
2599.94        53.50
2600.35        53.50
2600.89        53.50
2601.44        53.50
2601.83        53.50
2602.38        53.50
2602.92        53.50
2603.32        53.50
2603.87        53.50
2604.39        53.50
2604.93        53.50
2605.33        53.50
2605.88        53.50
2606.43        53.50
2606.83        53.50
2607.35        53.50
2607.90        53.50
2608.44        53.50
2608.84        53.50
2609.37        53.50
2609.91        53.50
2610.33        53.50
2610.85        53.50
2611.39        53.50
2611.94        53.50
2612.34        53.50
2612.89        53.50
2613.41        53.50
2613.83        53.50
2614.35        53.50
2614.90        53.50
2615.44        53.50
2615.85        53.50
2616.39        53.50
2616.92        53.50
2617.32        53.50
2617.86        53.50
2618.41        53.50
2618.81        53.50
2619.35        53.50
2619.87        53.50
2620.42        53.50
2620.82        53.50
2621.36        53.50
2621.91        53.50
2622.31        53.50
2622.85        53.50
2623.39        53.50
2623.92        53.50
2624.34        53.50
2624.87        53.50
2625.42        53.50
2625.81        53.50
2626.35        53.50
2626.89        53.50
2627.42        53.50
2627.82        53.00
2628.36        53.00
2628.91        53.00
2629.31        53.50
2629.86        53.00
2630.38        53.00
2630.93        53.00
2631.33        53.00
2631.87        53.00
2632.41        53.00
2632.81        53.00
2633.34        53.00
2633.89        53.00
2634.43        53.00
2634.83        53.00
2635.38        53.00
2635.92        53.00
2636.31        53.00
2636.86        53.00
2637.38        53.00
2637.93        53.00
2638.33        53.00
2638.88        53.00
2639.42        53.00
2639.82        53.00
2640.36        53.00
2640.90        53.00
2641.43        53.00
2641.83        53.00
2642.37        53.00
2642.91        53.00
2643.31        53.00
2643.85        53.00
2644.39        53.00
2644.81        53.00
2645.34        53.00
2645.89        53.00
2646.43        53.00
2646.84        53.00
2647.36        53.00
2647.90        53.00
2648.31        53.00
2648.84        53.00
2649.39        53.00
2649.94        53.00
2650.33        53.00
2650.87        53.00
2651.40        53.00
2651.80        53.00
2652.35        53.00
2652.89        53.00
2653.31        53.00
2653.85        53.00
2654.37        53.00
2654.91        53.00
2655.31        53.00
2655.85        53.00
2656.40        53.00
2656.81        53.00
2657.33        53.00
2657.87        53.00
2658.42        53.00
2658.82        53.00
2659.36        53.00
2659.89        53.00
2660.31        53.00
2660.83        53.00
2661.38        53.00
2661.92        53.00
2662.32        53.00
2662.87        53.00
2663.39        53.00
2663.81        53.00
2664.33        53.00
2664.87        53.00
2665.42        53.00
2665.82        53.00
2666.36        53.00
2666.91        53.00
2667.31        53.00
2667.83        53.00
2668.39        53.00
2668.93        52.50
2669.33        53.00
2669.86        53.00
2670.41        52.50
2670.81        52.50
2671.35        53.00
2671.89        53.00
2672.29        53.00
2672.83        52.50
2673.37        52.50
2673.90        53.00
2674.31        52.50
2674.86        52.50
2675.40        52.50
2675.80        52.50
2676.34        52.50
2676.89        52.50
2677.41        52.50
2677.81        52.50
2678.36        52.50
2678.90        52.50
2679.30        52.50
2679.85        52.50
2680.40        52.50
2680.80        52.50
2681.35        52.50
2681.88        52.50
2682.41        52.50
2682.82        52.50
2683.37        52.50
2683.91        52.50
2684.31        52.50
2684.85        52.50
2685.40        52.50
2685.80        52.50
2686.34        52.50
2686.88        52.50
2687.41        52.50
2687.81        52.50
2688.35        52.50
2688.90        52.50
2689.30        52.50
2689.84        52.50
2690.38        52.50
2690.92        52.50
2691.32        52.50
2691.86        52.50
2692.40        52.50
2692.80        52.50
2693.35        52.50
2693.88        52.50
2694.27        52.50
2694.82        52.50
2695.35        52.50
2695.90        52.50
2696.30        52.50
2696.85        52.50
2697.37        52.50
2697.79        52.50
2698.33        52.50
2698.87        52.50
2699.40        52.50
2699.80        52.50
2700.35        52.50
2700.89        52.50
2701.28        52.50
2701.82        52.50
2702.37        52.50
2702.91        52.50
2703.30        52.50
2703.85        52.50
2704.38        52.50
2704.80        52.50
2705.35        52.50
2705.89        52.50
2706.27        52.50
2706.82        52.50
2707.36        52.50
2707.89        52.50
2708.31        52.50
2708.85        52.50
2709.39        52.50
2709.79        52.50
2710.32        52.50
2710.87        52.50
2711.41        52.50
2711.80        52.50
2712.34        52.00
2712.87        52.50
2713.28        52.50
2713.83        52.50
2714.37        52.50
2714.91        52.00
2715.31        52.00
2715.85        52.50
2716.38        52.00
2716.79        52.00
2717.32        52.00
2717.86        52.50
2718.41        52.00
2718.80        52.00
2719.35        52.00
2719.88        52.00
2720.29        52.00
2720.83        52.00
2721.37        52.00
2721.90        52.00
2722.30        52.00
2722.85        52.00
2723.40        52.00
2723.79        52.00
2724.34        52.00
2724.87        52.00
2725.40        52.00
2725.80        52.00
2726.35        52.00
2726.89        52.00
2727.29        52.00
2727.84        52.00
2728.36        52.00
2728.78        52.00
2729.31        52.00
2729.86        52.00
2730.39        52.00
2730.79        52.00
2731.33        52.00
2731.87        52.00
2732.27        52.00
2732.82        52.00
2733.35        52.00
2733.88        52.00
2734.29        52.00
2734.84        52.00
2735.38        52.00
2735.78        52.00
2736.32        52.00
2736.84        52.00
2737.39        52.00
2737.79        52.00
2738.33        52.00
2738.86        52.00
2739.27        52.00
2739.82        52.00
2740.36        52.00
2740.90        52.00
2741.31        52.00
2741.83        52.00
2742.37        52.00
2742.78        52.00
2743.32        52.00
2743.85        52.00
2744.39        52.00
2744.79        52.00
2745.34        52.00
2745.88        52.00
2746.27        52.00
2746.82        52.00
2747.35        52.00
2747.89        52.00
2748.31        52.00
2748.84        52.00
2749.38        52.00
2749.77        52.00
2750.32        52.00
2750.85        52.00
2751.39        52.00
2751.79        52.00
2752.34        52.00
2752.88        52.00
2753.29        52.00
2753.81        52.00
2754.35        52.00
2754.90        52.00
2755.30        52.00
2755.85        52.00
2756.38        52.00
2756.79        51.50
2757.32        52.00
2757.87        52.00
2758.26        52.00
2758.81        52.00
2759.33        51.50
2759.88        52.00
2760.29        52.00
2760.82        51.50
2761.37        51.50
2761.76        51.50
2762.31        51.50
2762.85        51.50
2763.39        51.50
2763.79        51.50
2764.32        51.50
2764.87        51.50
2765.28        51.50
2765.82        51.50
2766.36        51.50
2766.76        51.50
2767.30        51.50
2767.85        51.50
2768.37        51.50
2768.78        51.50
2769.32        51.50
2769.85        51.50
2770.27        51.50
2770.80        51.50
2771.34        51.50
2771.89        51.50
2772.29        51.50
2772.82        51.50
2773.37        51.50
2773.77        51.50
2774.30        51.50
2774.85        51.50
2775.39        51.50
2775.79        51.50
2776.34        51.50
2776.87        51.50
2777.27        51.50
2777.82        51.50
2778.35        51.50
2778.90        51.50
2779.29        51.50
2779.83        51.50
2780.38        51.50
2780.77        51.50
2781.32        51.50
2781.86        51.50
2782.25        51.50
2782.79        51.50
2783.33        51.50
2783.88        51.50
2784.27        51.50
2784.82        51.50
2785.36        51.50
2785.76        51.50
2786.29        51.50
2786.83        51.50
2787.38        51.50
2787.78        51.50
2788.32        51.50
2788.87        51.50
2789.26        51.50
2789.80        51.50
2790.35        51.50
2790.88        51.50
2791.28        51.50
2791.82        51.50
2792.37        51.50
2792.78        51.50
2793.32        51.50
2793.85        51.50
2794.27        51.50
2794.80        51.50
2795.33        51.50
2795.87        51.50
2796.30        51.50
2796.83        51.50
2797.37        51.50
2797.77        51.50
2798.31        51.50
2798.85        51.50
2799.26        51.50
2799.80        51.50
2800.33        51.50
2800.87        51.50
2801.29        51.50
2801.83        51.50
2802.37        51.50
2802.77        51.50
2803.31        51.50
2803.85        51.00
2804.25        51.50
2804.79        51.00
2805.34        51.00
2805.88        51.00
2806.28        51.00
2806.82        51.00
2807.37        51.00
2807.77        51.00
2808.31        51.00
2808.85        51.00
2809.26        51.00
2809.79        51.00
2810.33        51.00
2810.88        51.00
2811.27        51.00
2811.82        51.00
2812.36        51.00
2812.76        51.00
2813.31        51.00
2813.85        51.00
2814.24        51.00
2814.79        51.00
2815.33        51.00
2815.86        51.00
2816.28        51.00
2816.82        51.00
2817.36        51.00
2817.76        51.00
2818.30        51.00
2818.85        51.00
2819.24        51.00
2819.79        51.00
2820.34        51.00
2820.87        51.00
2821.27        51.00
2821.82        51.00
2822.35        51.00
2822.76        51.00
2823.30        51.00
2823.84        51.00
2824.24        51.00
2824.79        51.00
2825.34        51.00
2825.74        51.00
2826.28        51.00
2826.83        51.00
2827.36        51.00
2827.77        51.00
2828.31        51.00
2828.85        51.00
2829.25        51.00
2829.79        51.00
2830.34        51.00
2830.75        51.00
2831.28        51.00
2831.83        51.00
2832.37        51.00
2832.78        51.00
2833.31        51.00
2833.84        51.00
2834.25        51.00
2834.79        51.00
2835.34        51.00
2835.88        51.00
2836.28        51.00
2836.82        51.00
2837.37        51.00
2837.76        51.00
2838.30        51.00
2838.85        51.00
2839.25        51.00
2839.79        51.00
2840.34        51.00
2840.87        51.00
2841.27        51.00
2841.82        51.00
2842.35        51.00
2842.77        51.00
2843.30        51.00
2843.85        51.00
2844.24        51.00
2844.79        51.00
2845.33        51.00
2845.87        51.00
2846.27        51.00
2846.81        51.00
2847.35        51.00
2847.76        51.00
2848.31        51.00
2848.85        51.00
2849.24        51.00
2849.79        51.00
2850.32        51.00
2850.87        51.00
2851.27        51.00
2851.82        51.00
2852.36        51.00
2852.76        50.50
2853.31        50.50
2853.84        50.50
2854.24        50.50
2854.78        50.50
2855.32        50.50
2855.87        50.50
2856.26        50.50
2856.81        50.50
2857.35        50.50
2857.76        50.50
2858.29        50.50
2858.84        50.50
2859.24        50.50
2859.79        50.50
2860.32        50.50
2860.86        50.50
2861.26        50.50
2861.80        50.50
2862.35        50.50
2862.75        50.50
2863.29        50.50
2863.84        50.50
2864.23        50.50
2864.77        50.50
2865.32        50.50
2865.86        50.50
2866.26        50.50
2866.81        50.50
2867.33        50.50
2867.75        50.50
2868.30        50.50
2868.83        50.50
2869.23        50.50
2869.77        50.50
2870.31        50.50
2870.85        50.50
2871.26        50.50
2871.80        50.50
2872.33        50.50
2872.74        50.50
2873.28        50.50
2873.82        50.50
2874.22        50.50
2874.76        50.50
2875.31        50.50
2875.85        50.50
2876.26        50.50
2876.80        50.50
2877.34        50.50
2877.74        50.50
2878.29        50.50
2878.82        50.50
2879.22        50.50
2879.77        50.50
2880.30        50.50
2880.86        50.50
2881.25        50.50
2881.80        50.50
2882.33        50.50
2882.73        50.50
2883.27        50.50
2883.82        50.50
2884.22        50.50
2884.77        50.50
2885.32        50.50
2885.72        50.50
2886.26        50.50
2886.80        50.50
2887.35        50.50
2887.75        50.50
2888.28        50.50
2888.83        50.50
2889.23        50.50
2889.77        50.50
2890.32        50.50
2890.86        50.50
2891.27        50.50
2891.79        50.50
2892.35        50.50
2892.74        50.50
2893.28        50.50
2893.82        50.50
2894.23        50.50
2894.77        50.50
2895.32        50.50
2895.85        50.50
2896.26        50.50
2896.81        50.50
2897.34        50.50
2897.74        50.50
2898.29        50.50
2898.82        50.50
2899.23        50.50
2899.77        50.50
2900.31        50.00
2900.86        50.50
2901.26        50.50
2901.80        50.50
2902.34        50.00
2902.74        50.00
2903.30        50.00
2903.83        50.50
2904.24        50.50
2904.78        50.00
2905.33        50.50
2905.72        50.50
2906.28        50.00
2906.81        50.00
2907.22        50.00
2907.76        50.00
2908.30        50.00
2908.85        50.00
2909.24        50.00
2909.79        50.00
2910.33        50.00
2910.74        50.00
2911.29        50.00
2911.82        50.00
2912.23        50.00
2912.77        50.00
2913.32        50.00
2913.71        50.00
2914.26        50.00
2914.80        50.00
2915.33        50.00
2915.74        50.00
2916.28        50.00
2916.83        50.00
2917.23        50.00
2917.77        50.00
2918.33        50.00
2918.72        50.00
2919.26        50.00
2919.82        50.00
2920.22        50.00
2920.76        50.00
2921.30        50.00
2921.83        50.00
2922.24        50.00
2922.79        50.00
2923.33        50.00
2923.73        50.00
2924.29        50.00
2924.82        50.00
2925.22        50.00
2925.77        50.00
2926.31        50.00
2926.71        50.00
2927.25        50.00
2927.79        50.00
2928.34        50.00
2928.74        50.00
2929.29        50.00
2929.83        50.00
2930.24        50.00
2930.79        50.00
2931.32        50.00
2931.72        50.00
2932.27        50.00
2932.80        50.00
2933.22        50.00
2933.76        50.00
2934.30        50.00
2934.85        50.00
2935.24        50.00
2935.79        50.00
2936.32        50.00
2936.73        50.00
2937.27        50.00
2937.82        50.00
2938.23        50.00
2938.77        50.00
2939.31        50.00
2939.71        50.00
2940.26        50.00
2940.80        50.00
2941.33        50.00
2941.73        50.00
2942.29        50.00
2942.84        50.00
2943.24        50.00
2943.78        50.00
2944.32        50.00
2944.75        50.00
2945.28        50.00
2945.82        50.00
2946.23        50.00
2946.77        50.00
2947.32        50.00
2947.71        50.00
2948.26        50.00
2948.80        50.00
2949.21        50.00
2949.74        50.00
2950.29        50.00
2950.84        50.00
2951.25        50.00
2951.77        50.00
2952.33        50.00
2952.73        50.00
2953.27        50.00
2953.81        50.00
2954.21        50.00
2954.76        50.00
2955.31        50.00
2955.70        50.00
2956.24        50.00
2956.78        50.00
2957.34        50.00
2957.73        50.00
2958.27        50.00
2958.82        50.00
2959.22        50.00
2959.76        50.00
2960.31        50.00
2960.71        50.00
2961.26        50.00
2961.81        50.00
2962.20        50.00
2962.74        50.00
2963.28        50.00
2963.82        50.00
2964.25        50.00
2964.78        50.00
2965.33        50.00
2965.73        50.00
2966.26        50.00
2966.80        50.00
2967.21        50.00
2967.76        50.00
2968.31        50.00
2968.70        50.00
2969.25        50.00
2969.80        50.00
2970.33        50.00
2970.73        49.50
2971.27        50.00
2971.82        50.00
2972.22        50.00
2972.76        50.00
2973.31        50.00
2973.71        50.00
2974.26        50.00
2974.80        50.00
2975.20        50.00
2975.75        49.50
2976.29        50.00
2976.83        50.00
2977.24        49.50
2977.79        50.00
2978.32        50.00
2978.73        50.00
2979.27        50.00
2979.80        50.00
2980.21        49.50
2980.75        50.00
2981.29        50.00
2981.69        50.00
2982.25        50.00
2982.79        50.00
2983.33        50.00
2983.73        50.00
2984.27        50.00
2984.82        50.00
2985.22        50.00
2985.76        50.00
2986.31        50.00
2986.71        50.00
2987.25        50.00
2987.79        50.00
2988.20        49.50
2988.74        49.50
2989.29        50.00
2989.69        50.00
2990.23        49.50
2990.77        50.00
2991.32        50.00
2991.72        49.50
2992.26        50.00
2992.81        49.50
2993.21        50.00
2993.76        50.00
2994.30        50.00
2994.71        50.00
2995.24        50.00
2995.79        50.00
2996.19        49.50
2996.73        50.00
2997.28        49.50
2997.82        49.50
2998.22        50.00
2998.77        50.00
2999.30        49.50
2999.71        50.00
3000.26        50.00
3000.80        50.00
3001.20        50.00
3001.74        50.00
3002.28        50.00
3002.70        50.00
3003.24        50.00
3003.77        50.00
3004.34        50.00
3004.74        50.00
3005.28        50.00
3005.82        50.00
3006.23        50.00
3006.77        50.00
3007.30        50.00
3007.71        50.00
3008.27        50.00
3008.80        49.50
3009.21        50.00
3009.74        50.00
3010.29        50.00
3010.70        50.00
3011.23        50.00
3011.78        50.00
3012.32        50.00
3012.73        50.00
3013.27        50.00
3013.81        50.00
3014.22        50.00
3014.76        50.00
3015.31        50.00
3015.70        50.00
3016.25        50.00
3016.79        50.00
3017.20        50.00
3017.74        50.00
3018.28        50.00
3018.68        50.00
3019.23        50.00
3019.77        50.00
3020.30        50.00
3020.71        50.00
3021.25        50.00
3021.80        50.00
3022.22        50.00
3022.75        50.00
3023.29        50.00
3023.69        50.00
3024.23        50.00
3024.77        50.00
3025.18        50.00
3025.72        50.00
3026.26        50.00
3026.81        50.00
3027.21        50.00
3027.76        50.00
3028.31        50.00
3028.70        50.00
3029.24        50.00
3029.79        50.00
3030.20        50.00
3030.74        50.00
3031.28        50.00
3031.68        50.00
3032.23        50.00
3032.78        50.00
3033.31        50.00
3033.71        50.00
3034.26        50.00
3034.81        50.00
3035.20        50.00
3035.74        50.00
3036.29        50.00
3036.70        50.00
3037.22        50.00
3037.77        50.00
3038.19        50.00
3038.73        50.00
3039.27        50.00
3039.81        50.00
3040.21        50.00
3040.76        50.00
3041.29        50.00
3041.70        50.00
3042.25        50.00
3042.79        50.00
3043.20        50.00
3043.74        50.00
3044.28        50.00
3044.68        50.00
3045.22        50.00
3045.77        50.00
3046.32        50.00
3046.70        50.00
3047.26        50.00
3047.80        50.00
3048.19        50.00
3048.74        50.00
3049.28        50.00
3049.75        50.00
3050.23        50.00
3050.78        50.00
3051.19        50.00
3051.73        50.00
3052.26        50.00
3052.81        50.00
3053.20        50.00
3053.76        50.00
3054.30        50.00
3054.70        50.00
3055.25        50.00
3055.78        50.00
3056.20        50.00
3056.72        50.00
3057.27        50.00
3057.68        50.00
3058.22        50.00
3058.76        50.00
3059.30        50.00
3059.70        50.00
3060.25        50.00
3060.80        50.00
3061.20        50.00
3061.74        50.00
3062.29        50.00
3062.70        50.00
3063.23        50.00
3063.77        50.00
3064.19        50.00
3064.74        50.00
3065.28        50.00
3065.68        50.00
3066.23        50.00
3066.76        50.00
3067.17        50.00
3067.71        50.00
3068.26        50.00
3068.80        50.00
3069.21        50.00
3069.75        50.00
3070.28        50.00
3070.69        50.00
3071.24        50.00
3071.78        50.00
3072.18        50.00
3072.71        50.00
3073.27        50.50
3073.67        50.00
3074.22        50.50
3074.75        50.50
3075.29        50.00
3075.71        50.00
3076.24        50.00
3076.78        50.50
3077.19        50.50
3077.73        50.50
3078.27        50.50
3078.68        50.50
3079.23        50.50
3079.77        50.50
3080.17        50.50
3080.72        50.50
3081.25        50.50
3081.80        50.50
3082.20        50.50
3082.74        50.50
3083.29        50.50
3083.69        50.50
3084.24        50.50
3084.77        50.50
3085.18        50.50
3085.73        50.50
3086.26        50.50
3086.66        50.50
3087.22        50.50
3087.75        50.50
3088.30        50.50
3088.70        50.50
3089.24        50.50
3089.79        50.50
3090.18        50.50
3090.74        50.50
3091.28        50.50
3091.68        50.50
3092.21        50.50
3092.77        50.50
3093.18        50.50
3093.71        50.50
3094.25        50.50
3094.80        50.50
3095.20        50.50
3095.75        50.50
3096.30        50.50
3096.68        50.50
3097.23        50.50
3097.78        50.50
3098.18        50.50
3098.72        50.50
3099.26        50.50
3099.67        50.50
3100.21        50.50
3100.75        50.50
3101.15        50.50
3101.70        50.50
3102.25        50.50
3102.78        50.50
3103.20        50.50
3103.72        50.50
3104.28        50.50
3104.69        50.50
3105.22        50.50
3105.76        50.50
3106.18        50.50
3106.71        50.50
3107.25        50.50
3107.66        50.50
3108.21        51.00
3108.74        50.50
3109.28        51.00
3109.69        51.00
3110.24        51.00
3110.77        51.00
3111.18        51.00
3111.71        51.00
3112.25        51.00
3112.67        51.00
3113.21        51.00
3113.75        51.00
3114.16        51.00
3114.71        51.00
3115.24        51.00
3115.77        51.00
3116.19        51.00
3116.74        51.00
3117.27        51.00
3117.68        51.00
3118.22        51.00
3118.76        51.00
3119.16        51.00
3119.71        51.00
3120.25        51.00
3120.67        51.00
3121.19        51.00
3121.74        51.00
3122.29        51.00
3122.70        51.00
3123.23        51.00
3123.77        51.00
3124.18        51.00
3124.73        51.00
3125.27        51.00
3125.69        51.00
3126.23        51.00
3126.76        51.00
3127.18        51.00
3127.72        51.00
3128.25        51.00
3128.67        51.00
3129.20        51.00
3129.74        51.00
3130.15        51.00
3130.70        51.00
3131.24        51.00
3131.78        51.00
3132.18        51.00
3132.72        51.00
3133.27        51.00
3133.68        51.50
3134.21        51.50
3134.75        51.50
3135.17        51.50
3135.70        51.50
3136.24        51.50
3136.66        51.50
3137.18        51.50
3137.73        51.50
3138.27        51.50
3138.69        51.50
3139.22        51.50
3139.76        51.50
3140.17        51.50
3140.70        51.50
3141.26        51.50
3141.67        51.50
3142.19        51.50
3142.74        51.50
3143.14        51.50
3143.69        51.50
3144.23        51.50
3144.78        51.50
3145.19        51.50
3145.72        51.50
3146.26        51.50
3146.66        51.50
3147.22        51.50
3147.75        51.50
3148.15        51.50
3148.70        51.50
3149.24        51.50
3149.65        51.50
3150.18        51.50
3150.73        51.50
3151.28        51.50
3151.69        51.50
3152.22        51.50
3152.77        51.50
3153.17        52.00
3153.71        52.00
3154.26        51.50
3154.65        52.00
3155.20        52.00
3155.75        52.00
3156.14        52.00
3156.69        52.00
3157.22        52.00
3157.78        52.00
3158.18        52.00
3158.72        52.00
3159.27        52.00
3159.67        52.00
3160.21        52.00
3160.75        52.00
3161.15        52.00
3161.69        52.00
3162.25        52.00
3162.64        52.00
3163.18        52.00
3163.74        52.00
3164.27        52.00
3164.68        52.00
3165.22        52.00
3165.75        52.00
3166.17        52.00
3166.71        52.00
3167.24        52.00
3167.65        52.00
3168.21        52.00
3168.74        52.00
3169.15        52.00
3169.68        52.00
3170.23        52.00
3170.77        52.00
3171.18        52.00
3171.71        52.00
3172.26        52.00
3172.68        52.00
3173.21        52.00
3173.74        52.50
3174.14        52.50
3174.69        52.50
3175.23        52.50
3175.64        52.50
3176.17        52.50
3176.72        52.50
3177.25        52.50
3177.66        52.50
3178.20        52.50
3178.75        52.50
3179.15        52.50
3179.69        52.50
3180.22        52.50
3180.64        52.50
3181.17        52.50
3181.72        52.50
3182.25        52.50
3182.67        52.50
3183.20        52.50
3183.74        52.50
3184.15        52.50
3184.70        52.50
3185.25        52.50
3185.65        52.50
3186.18        52.50
3186.74        52.50
3187.27        52.50
3187.66        52.50
3188.22        52.50
3188.76        52.50
3189.16        52.50
3189.70        52.50
3190.24        53.00
3190.64        53.00
3191.18        53.00
3191.72        53.00
3192.28        53.00
3192.67        53.00
3193.21        53.00
3193.75        53.00
3194.15        53.00
3194.70        53.00
3195.23        53.00
3195.65        53.00
3196.18        53.00
3196.72        53.00
3197.26        53.00
3197.67        53.00
3198.20        53.00
3198.74        53.00
3199.15        53.00
3199.69        53.00
3200.24        53.00
3200.63        53.00
3201.18        53.00
3201.71        53.00
3202.26        53.00
3202.67        53.00
3203.20        53.00
3203.75        53.00
3204.14        53.00
3204.70        53.50
3205.23        53.00
3205.63        53.00
3206.18        53.50
3206.71        53.50
3207.26        53.50
3207.65        53.50
3208.19        53.50
3208.74        53.50
3209.14        53.50
3209.69        53.50
3210.23        53.50
3210.63        53.50
3211.17        53.50
3211.71        53.50
3212.24        53.50
3212.67        53.50
3213.20        53.50
3213.74        53.50
3214.15        53.50
3214.68        53.50
3215.22        53.50
3215.64        53.50
3216.16        53.50
3216.71        53.50
3217.26        53.50
3217.65        53.50
3218.19        53.50
3218.75        53.50
3219.14        53.50
3219.68        54.00
3220.23        53.50
3220.63        54.00
3221.17        54.00
3221.71        54.00
3222.26        54.00
3222.65        54.00
3223.19        54.00
3223.73        54.00
3224.13        54.00
3224.68        54.00
3225.21        54.00
3225.62        54.00
3226.17        54.00
3226.71        54.00
3227.24        54.00
3227.66        54.00
3228.18        54.00
3228.72        54.00
3229.15        54.00
3229.68        54.00
3230.21        54.00
3230.63        54.00
3231.16        54.00
3231.69        54.00
3232.23        54.00
3232.65        54.00
3233.18        54.00
3233.74        54.00
3234.13        54.00
3234.68        54.50
3235.21        54.50
3235.61        54.50
3236.15        54.50
3236.70        54.50
3237.23        54.50
3237.64        54.50
3238.18        54.50
3238.73        54.50
3239.13        54.50
3239.67        54.50
3240.20        54.50
3240.76        54.50
3241.15        54.50
3241.69        54.50
3242.25        54.50
3242.63        54.50
3243.18        54.50
3243.72        54.50
3244.12        54.50
3244.68        54.50
3245.22        54.50
3245.62        54.50
3246.18        54.50
3246.71        54.50
3247.26        54.50
3247.65        54.50
3248.19        55.00
3248.72        55.00
3249.13        55.00
3249.68        55.00
3250.21        55.00
3250.62        55.00
3251.17        55.00
3251.70        55.00
3252.24        55.00
3252.65        55.00
3253.19        55.00
3253.73        55.00
3254.14        55.00
3254.67        55.00
3255.23        55.00
3255.63        55.00
3256.17        55.00
3256.70        55.00
3257.23        55.00
3257.65        55.00
3258.19        55.00
3258.72        55.00
3259.12        55.00
3259.66        55.00
3260.20        55.00
3260.74        55.50
3261.14        55.50
3261.68        55.50
3262.22        55.50
3262.63        55.50
3263.17        55.50
3263.70        55.50
3264.24        55.50
3264.64        55.50
3265.18        55.50
3265.73        55.50
3266.13        55.50
3266.67        55.50
3267.20        55.50
3267.61        55.50
3268.15        55.50
3268.70        55.50
3269.22        55.50
3269.64        55.50
3270.18        55.50
3270.70        55.50
3271.10        55.50
3271.64        55.50
3272.19        55.50
3272.72        56.00
3273.13        56.00
3273.68        56.00
3274.20        56.00
3274.62        56.00
3275.15        56.00
3275.68        56.00
3276.24        56.00
3276.62        56.00
3277.17        56.00
3277.70        56.00
3278.12        56.00
3278.66        56.00
3279.19        56.00
3279.73        56.00
3280.13        56.00
3280.66        56.00
3281.22        56.00
3281.61        56.00
3282.15        56.00
3282.70        56.00
3283.23        56.00
3283.63        56.00
3284.18        56.00
3284.70        56.00
3285.12        56.50
3285.66        56.50
3286.19        56.50
3286.73        56.50
3287.13        56.50
3287.68        56.50
3288.22        56.50
3288.62        56.50
3289.15        56.50
3289.70        56.50
3290.24        56.50
3290.63        56.50
3291.17        56.50
3291.71        56.50
3292.12        56.50
3292.65        56.50
3293.20        56.50
3293.59        56.50
3294.15        56.50
3294.68        56.50
3295.23        56.50
3295.61        56.50
3296.17        56.50
3296.69        56.50
3297.11        57.00
3297.65        57.00
3298.17        57.00
3298.73        57.00
3299.12        57.00
3299.66        57.00
3300.20        57.00
3300.61        57.00
3301.14        57.00
3301.68        57.00
3302.23        57.00
3302.61        57.00
3303.16        57.00
3303.71        57.00
3304.10        57.00
3304.66        57.00
3305.19        57.00
3305.60        57.00
3306.14        57.00
3306.69        57.00
3307.22        57.00
3307.63        57.00
3308.15        57.00
3308.71        57.00
3309.10        57.50
3309.64        57.50
3310.18        57.50
3310.72        57.50
3311.13        57.50
3311.66        57.50
3312.21        57.50
3312.59        57.50
3313.14        57.50
3313.68        57.50
3314.22        57.50
3314.63        57.50
3315.16        57.50
3315.71        57.50
3316.11        57.50
3316.64        57.50
3317.18        57.50
3317.73        57.50
3318.13        57.50
3318.67        57.50
3319.20        57.50
3319.60        57.50
3320.14        57.50
3320.69        57.50
3321.23        57.50
3321.62        58.00
3322.16        58.00
3322.71        58.00
3323.11        58.00
3323.65        58.00
3324.19        58.00
3324.72        58.00
3325.13        58.00
3325.67        58.00
3326.20        58.00
3326.61        58.00
3327.14        58.00
3327.68        58.00
3328.10        58.00
3328.62        58.00
3329.16        58.00
3329.71        58.00
3330.10        58.00
3330.65        58.00
3331.18        58.00
3331.60        58.00
3332.13        58.00
3332.67        58.00
3333.21        58.00
3333.61        58.50
3334.15        58.50
3334.69        58.50
3335.10        58.50
3335.63        58.50
3336.18        58.50
3336.70        58.50
3337.11        58.50
3337.64        58.50
3338.18        58.50
3338.59        58.50
3339.13        58.50
3339.68        58.50
3340.21        58.50
3340.62        58.50
3341.14        58.50
3341.70        58.50
3342.09        58.50
3342.64        58.50
3343.17        58.50
3343.71        58.50
3344.11        58.50
3344.65        58.50
3345.20        59.00
3345.60        59.00
3346.15        59.00
3346.67        59.00
3347.21        59.00
3347.62        59.00
3348.16        59.00
3348.70        59.00
3349.09        59.00
3349.65        59.00
3350.17        59.00
3350.71        59.00
3351.12        59.00
3351.65        59.00
3352.19        59.00
3352.61        59.00
3353.14        59.00
3353.67        59.00
3354.21        59.00
3354.61        59.00
3355.15        59.00
3355.70        59.00
3356.09        59.00
3356.63        59.00
3357.19        59.00
3357.58        59.00
3358.12        59.00
3358.65        59.50
3359.19        59.50
3359.60        59.50
3360.15        59.50
3360.68        59.50
3361.08        59.50
3361.62        59.50
3362.17        59.50
3362.69        59.50
3363.11        59.50
3363.64        59.50
3364.17        59.50
3364.59        59.50
3365.13        59.50
3365.68        59.50
3366.07        59.50
3366.62        59.50
3367.15        59.50
3367.71        59.50
3368.10        59.50
3368.63        59.50
3369.17        59.50
3369.58        59.50
3370.12        59.50
3370.66        59.50
3371.19        60.00
3371.61        59.50
3372.13        60.00
3372.68        60.00
3373.08        60.00
3373.62        60.00
3374.16        60.00
3374.70        60.00
3375.11        60.00
3375.64        60.00
3376.19        60.00
3376.58        60.00
3377.13        60.00
3377.66        60.00
3378.20        60.00
3378.61        60.00
3379.15        60.00
3379.68        60.00
3380.10        60.00
3380.63        60.00
3381.16        60.00
3381.71        60.00
3382.10        60.00
3382.65        60.00
3383.18        60.00
3383.58        60.00
3384.13        60.50
3384.66        60.50
3385.21        60.00
3385.60        60.50
3386.15        60.50
3386.69        60.50
3387.10        60.50
3387.62        60.50
3388.17        60.50
3388.70        60.50
3389.11        60.50
3389.64        60.50
3390.19        60.50
3390.60        60.50
3391.13        60.50
3391.67        60.50
3392.06        60.50
3392.62        60.50
3393.15        60.50
3393.68        60.50
3394.10        61.00
3394.62        60.50
3395.17        61.00
3395.56        61.00
3396.11        61.00
3396.64        61.00
3397.18        61.00
3397.59        61.00
3398.13        61.00
3398.66        61.00
3399.07        61.00
3399.62        61.00
3400.16        61.00
3400.69        61.00
3401.09        61.00
3401.64        61.00
3402.18        61.00
3402.58        61.00
3403.11        61.00
3403.66        61.00
3404.19        61.00
3404.60        61.00
3405.13        61.00
3405.68        61.00
3406.09        61.00
3406.61        61.00
3407.16        61.00
3407.69        61.00
3408.10        61.00
3408.63        61.00
3409.17        61.00
3409.57        61.00
3410.11        61.50
3410.66        61.50
3411.18        61.50
3411.59        61.50
3412.14        61.50
3412.67        61.50
3413.09        61.50
3413.62        61.50
3414.15        61.50
3414.70        61.50
3415.09        61.50
3415.65        61.50
3416.18        61.50
3416.58        61.50
3417.11        61.50
3417.67        61.50
3418.20        61.50
3418.61        61.50
3419.14        61.50
3419.67        61.50
3420.09        61.50
3420.62        61.50
3421.15        61.50
3421.57        61.50
3422.10        61.50
3422.65        61.50
3423.17        61.50
3423.59        61.50
3424.12        61.50
3424.68        61.50
3425.07        61.50
3425.62        61.50
3426.15        62.00
3426.56        62.00
3427.10        62.00
3427.64        62.00
3428.17        62.00
3428.58        62.00
3429.11        62.00
3429.66        62.00
3430.06        62.00
3430.60        62.00
3431.14        62.00
3431.69        62.00
3432.09        62.00
3432.62        62.00
3433.15        62.00
3433.56        62.00
3434.10        62.00
3434.64        62.00
3435.17        62.00
3435.59        62.00
3436.12        62.00
3436.65        62.00
3437.08        62.00
3437.60        62.00
3438.14        62.00
3438.68        62.00
3439.09        62.00
3439.62        62.00
3440.16        62.00
3440.56        62.00
3441.11        62.00
3441.65        62.00
3442.18        62.50
3442.60        62.00
3443.13        62.50
3443.67        62.50
3444.06        62.50
3444.60        62.50
3445.15        62.50
3445.68        62.50
3446.10        62.50
3446.63        62.50
3447.16        62.50
3447.57        62.50
3448.10        62.50
3448.65        62.50
3449.18        62.50
3449.60        62.50
3450.14        62.50
3450.67        62.50
3451.06        62.50
3451.61        62.50
3452.14        62.50
3452.69        62.50
3453.10        62.50
3453.63        62.50
3454.17        62.50
3454.58        62.50
3455.11        62.50
3455.64        62.50
3456.06        62.50
3456.59        62.50
3457.13        62.50
3457.67        62.50
3458.08        62.50
3458.61        62.50
3459.15        62.50
3459.55        62.50
3460.09        62.50
3460.63        62.50
3461.18        63.00
3461.59        63.00
3462.11        63.00
3462.66        63.00
3463.07        63.00
3463.60        63.00
3464.13        63.00
3464.66        63.00
3465.09        63.00
3465.62        63.00
3466.15        63.00
3466.55        63.00
3467.10        63.00
3467.62        63.00
3468.18        63.00
3468.57        63.00
3469.11        63.00
3469.65        63.00
3470.06        63.00
3470.59        63.00
3471.14        63.00
3471.68        63.00
3472.08        63.00
3472.62        63.00
3473.16        63.00
3473.56        63.00
3474.11        63.00
3474.64        63.00
3475.17        63.00
3475.59        63.00
3476.11        63.00
3476.66        63.00
3477.07        63.00
3477.60        63.00
3478.13        63.00
3478.68        63.50
3479.07        63.50
3479.61        63.00
3480.16        63.50
3480.57        63.50
3481.11        63.50
3481.64        63.50
3482.05        63.50
3482.59        63.50
3483.12        63.50
3483.67        63.50
3484.06        63.50
3484.61        63.50
3485.15        63.50
3485.56        63.50
3486.10        63.50
3486.65        63.50
3487.17        63.50
3487.57        63.50
3488.12        63.50
3488.65        63.50
3489.07        63.50
3489.60        63.50
3490.14        63.50
3490.54        63.50
3491.08        63.50
3491.62        63.50
3492.16        63.50
3492.56        63.50
3493.11        63.50
3493.64        63.50
3494.04        63.50
3494.57        63.50
3495.12        63.50
3495.65        63.50
3496.06        63.50
3496.60        63.50
3497.14        63.50
3497.54        63.50
3498.09        63.50
3498.62        63.50
3499.15        63.50
3499.56        64.00
3500.11        64.00
3500.64        64.00
3501.04        64.00
3501.58        64.00
3502.12        64.00
3502.67        64.00
3503.08        64.00
3503.60        64.00
3504.15        64.00
3504.54        64.00
3505.09        64.00
3505.62        64.00
3506.17        64.00
3506.57        64.00
3507.11        64.00
3507.65        64.00
3508.04        64.00
3508.60        64.00
3509.13        64.00
3509.66        64.00
3510.07        64.00
3510.61        64.00
3511.15        64.00
3511.55        64.00
3512.09        64.00
3512.64        64.00
3513.17        64.00
3513.56        64.00
3514.12        64.00
3514.64        64.00
3515.05        64.00
3515.58        64.00
3516.14        64.00
3516.52        64.00
3517.07        64.00
3517.61        64.00
3518.14        64.00
3518.55        64.00
3519.09        64.00
3519.62        64.00
3520.04        64.00
3520.57        64.00
3521.11        64.00
3521.66        64.00
3522.05        64.50
3522.59        64.00
3523.12        64.50
3523.53        64.50
3524.08        64.50
3524.62        64.50
3525.16        64.50
3525.55        64.50
3526.10        64.50
3526.63        64.50
3527.04        64.50
3527.57        64.50
3528.11        64.50
3528.66        64.50
3529.07        64.50
3529.59        64.50
3530.13        64.50
3530.55        64.50
3531.08        64.50
3531.61        64.50
3532.15        64.50
3532.56        64.50
3533.10        64.50
3533.63        64.50
3534.04        64.50
3534.59        64.50
3535.11        64.50
3535.65        64.50
3536.05        64.50
3536.59        64.50
3537.13        64.50
3537.55        64.50
3538.08        64.50
3538.61        64.50
3539.15        64.50
3539.56        64.50
3540.09        64.50
3540.64        64.50
3541.03        64.50
3541.58        64.50
3542.12        64.50
3542.66        64.50
3543.07        64.50
3543.60        64.50
3544.14        64.50
3544.55        64.50
3545.09        64.50
3545.63        64.50
3546.05        64.50
3546.58        64.50
3547.11        64.50
3547.65        64.50
3548.06        64.50
3548.59        65.00
3549.15        65.00
3549.54        65.00
3550.07        65.00
3550.62        65.00
3551.03        65.00
3551.56        65.00
3552.11        65.00
3552.64        65.00
3553.05        65.00
3553.58        65.00
3554.12        65.00
3554.53        65.00
3555.05        65.00
3555.61        65.00
3556.15        65.00
3556.55        65.00
3557.08        65.00
3557.63        65.00
3558.02        65.00
3558.56        65.00
3559.11        65.00
3559.64        65.00
3560.05        65.00
3560.59        65.00
3561.12        65.00
3561.52        65.00
3562.06        65.00
3562.60        65.00
3563.14        65.00
3563.54        65.00
3564.08        65.00
3564.62        65.00
3565.03        65.00
3565.56        65.00
3566.11        65.00
3566.64        65.00
3567.06        65.00
3567.59        65.00
3568.12        65.00
3568.52        65.00
3569.08        65.00
3569.61        65.00
3570.14        65.00
3570.56        65.00
3571.09        65.00
3571.63        65.00
3572.04        65.00
3572.57        65.00
3573.10        65.00
3573.65        65.00
3574.04        65.00
3574.58        65.00
3575.12        65.00
3575.54        65.00
3576.07        65.00
3576.61        65.00
3577.15        65.00
3577.55        65.00
3578.09        65.00
3578.64        65.00
3579.04        65.00
3579.57        65.50
3580.11        65.00
3580.53        65.50
3581.05        65.00
3581.60        65.00
3582.13        65.50
3582.53        65.50
3583.07        65.50
3583.62        65.50
3584.01        65.50
3584.56        65.50
3585.09        65.50
3585.64        65.50
3586.03        65.50
3586.58        65.50
3587.11        65.50
3587.52        65.50
3588.06        65.50
3588.60        65.50
3589.14        65.50
3589.54        65.50
3590.08        65.50
3590.61        65.50
3591.03        65.50
3591.56        65.50
3592.09        65.50
3592.64        65.50
3593.03        65.50
3593.57        65.50
3594.11        65.50
3594.53        65.50
3595.06        65.50
3595.60        65.50
3596.14        65.50
3596.55        65.50
3597.08        65.50
3597.61        65.50
3598.01        65.50
3598.57        65.50
3599.10        65.50
3599.64        65.50
3600.03        65.50
3600.58        65.50
3601.11        65.50
3601.52        65.50
3602.06        65.50
3602.60        65.50
3603.14        65.50
3603.55        65.50
3604.08        65.50
3604.63        65.50
3605.04        65.50
3605.58        65.50
3606.11        65.50
3606.51        65.50
3607.05        65.50
3607.60        65.50
3608.13        65.50
3608.53        65.50
3609.07        65.50
3609.63        65.50
3610.03        65.50
3610.56        65.50
3611.10        65.50
3611.64        65.50
3612.05        65.50
3612.58        65.50
3613.12        65.50
3613.53        65.50
3614.06        65.50
3614.60        65.50
3614.99        65.50
3615.54        65.50
3616.08        65.50
3616.62        65.50
3617.03        65.50
3617.56        65.50
3618.09        65.50
3618.50        65.50
3619.05        65.50
3619.58        65.50
3620.11        65.50
3620.52        66.00
3621.06        65.50
3621.60        66.00
3622.01        66.00
3622.55        66.00
3623.08        66.00
3623.63        66.00
3624.03        66.00
3624.56        66.00
3625.09        66.00
3625.52        66.00
3626.05        66.00
3626.58        66.00
3627.13        66.00
3627.52        66.00
3628.07        66.00
3628.60        66.00
3629.00        66.00
3629.54        66.00
3630.10        66.00
3630.62        66.00
3631.02        66.00
3631.57        66.00
3632.10        66.00
3632.51        66.00
3633.04        66.00
3633.58        66.00
3634.12        66.00
3634.53        66.00
3635.07        66.00
3635.60        66.00
3636.01        66.00
3636.56        66.00
3637.09        66.00
3637.63        66.00
3638.04        66.00
3638.57        66.00
3639.10        66.00
3639.51        66.00
3640.05        66.00
3640.59        66.00
3640.99        66.00
3641.54        66.00
3642.08        66.00
3642.61        66.00
3643.01        66.00
3643.55        66.00
3644.09        66.00
3644.50        66.00
3645.04        66.00
3645.58        66.00
3646.11        66.00
3646.52        66.00
3647.05        66.00
3647.59        66.00
3647.99        66.00
3648.54        66.00
3649.07        66.00
3649.61        66.00
3650.01        66.00
3650.55        66.00
3651.09        66.00
3651.50        66.00
3652.03        66.00
3652.57        66.00
3653.11        66.00
3653.52        66.00
3654.06        66.00
3654.60        66.00
3655.01        66.00
3655.54        66.00
3656.08        66.00
3656.62        66.00
3657.03        66.00
3657.56        66.00
3658.10        66.00
3658.49        66.00
3659.04        66.00
3659.57        66.00
3660.12        66.00
3660.52        66.00
3661.06        66.00
3661.60        66.00
3662.00        66.00
3662.54        66.00
3663.08        66.00
3663.62        66.00
3664.02        66.00
3664.58        66.00
3665.11        66.00
3665.52        66.00
3666.05        66.00
3666.60        66.00
3667.00        66.00
3667.54        66.00
3668.08        66.00
3668.61        66.00
3669.02        66.00
3669.55        66.00
3670.10        66.00
3670.51        66.00
3671.05        66.00
3671.58        66.00
3672.12        66.00
3672.52        66.00
3673.05        66.00
3673.59        66.00
3674.01        66.00
3674.54        66.00
3675.08        66.00
3675.61        66.00
3676.02        66.00
3676.56        66.00
3677.09        66.00
3677.51        66.00
3678.04        66.00
3678.58        66.00
3678.98        66.00
3679.52        66.00
3680.06        66.00
3680.60        66.00
3681.01        66.00
3681.54        66.00
3682.09        66.00
3682.48        66.00
3683.02        66.00
3683.56        66.00
3684.11        66.00
3684.50        66.50
3685.05        66.00
3685.59        66.50
3685.98        66.50
3686.54        66.50
3687.06        66.50
3687.60        66.50
3688.00        66.00
3688.55        66.50
3689.08        66.50
3689.48        66.50
3690.04        66.50
3690.57        66.00
3691.11        66.50
3691.50        66.50
3692.04        66.50
3692.58        66.50
3692.99        66.50
3693.53        66.50
3694.07        66.50
3694.61        66.50
3695.01        66.50
3695.55        66.50
3696.09        66.50
3696.50        66.50
3697.03        66.50
3697.57        66.50
3698.11        66.50
3698.50        66.50
3699.06        66.00
3699.59        66.50
3699.99        66.50
3700.53        66.50
3701.07        66.50
3701.60        66.50
3702.02        66.50
3702.56        66.50
3703.09        66.50
3703.50        66.50
3704.03        66.50
3704.57        66.50
3704.97        66.50
3705.51        66.50
3706.05        66.50
3706.58        66.50
3707.00        66.50
3707.54        66.50
3708.07        66.50
3708.48        66.50
3709.01        66.50
3709.55        66.50
3710.09        66.50
3710.50        66.50
3711.03        66.50
3711.57        66.50
3711.99        66.50
3712.53        66.50
3713.06        66.50
3713.60        66.50
3714.00        66.50
3714.53        66.50
3715.08        66.50
3715.49        66.50
3716.02        66.50
3716.55        66.50
3717.10        66.50
3717.49        66.50
3718.03        66.50
3718.58        66.50
3718.98        66.50
3719.51        66.50
3720.06        66.50
3720.59        66.50
3721.00        66.50
3721.54        66.50
3722.08        66.50
3722.47        66.50
3723.02        66.50
3723.55        66.50
3724.12        66.50
3724.51        66.50
3725.06        66.50
3725.59        66.50
3725.99        66.50
3726.55        66.50
3727.08        66.50
3727.48        66.50
3728.01        66.50
3728.56        66.50
3729.09        66.50
3729.51        66.50
3730.04        66.50
3730.58        66.50
3730.99        66.50
3731.51        66.50
3732.05        66.50
3732.60        66.50
3733.00        66.50
3733.53        66.50
3734.07        66.50
3734.48        66.50
3735.02        66.50
3735.57        66.50
3736.10        66.50
3736.49        66.50
3737.04        66.50
3737.57        66.50
3737.98        66.50
3738.51        66.50
3739.07        66.50
3739.47        66.50
3740.00        66.50
3740.54        66.50
3741.07        66.50
3741.48        66.50
3742.03        66.50
3742.57        66.50
3742.97        66.50
3743.51        66.50
3744.04        66.50
3744.58        66.50
3744.99        66.50
3745.52        66.50
3746.06        66.50
3746.47        66.50
3747.00        66.50
3747.56        66.50
3748.08        66.50
3748.49        66.50
3749.02        66.50
3749.56        66.50
3749.97        66.50
3750.52        66.50
3751.05        66.50
3751.58        66.50
3751.98        66.50
3752.52        66.50
3753.06        66.50
3753.48        66.50
3754.02        66.50
3754.55        66.50
3755.09        66.50
3755.48        66.50
3756.03        66.50
3756.56        66.50
3756.98        66.50
3757.52        66.50
3758.05        66.50
3758.60        66.50
3759.00        66.50
3759.52        66.50
3760.08        66.50
3760.47        66.50
3761.01        66.50
3761.55        66.50
3762.09        66.50
3762.50        66.50
3763.03        66.50
3763.57        66.50
3763.98        66.50
3764.52        66.50
3765.05        66.50
3765.60        66.50
3765.99        66.50
3766.54        66.50
3767.07        66.50
3767.47        66.50
3768.02        66.50
3768.56        66.50
3768.96        66.50
3769.50        66.50
3770.04        66.50
3770.56        66.50
3770.98        66.50
3771.52        66.50
3772.05        66.50
3772.46        66.50
3773.00        66.50
3773.54        66.50
3774.07        66.50
3774.49        66.50
3775.02        66.50
3775.56        66.50
3775.97        66.50
3776.50        66.50
3777.04        66.50
3777.57        66.50
3777.98        66.50
3778.52        66.50
3779.06        66.50
3779.46        66.50
3780.00        66.50
3780.54        66.50
3781.08        66.50
3781.48        66.50
3782.02        66.50
3782.56        66.50
3782.97        66.50
3783.50        66.50
3784.04        66.50
3784.47        66.50
3785.00        66.50
3785.54        66.50
3786.08        66.50
3786.49        66.50
3787.02        66.50
3787.56        66.50
3787.95        66.50
3788.51        66.50
3789.04        66.50
3789.58        66.50
3789.98        66.50
3790.52        66.50
3791.07        66.50
3791.46        66.50
3792.01        66.50
3792.54        66.50
3793.08        66.50
3793.47        66.50
3794.03        66.50
3794.56        66.50
3794.96        66.50
3795.51        66.50
3796.04        66.50
3796.59        66.50
3796.97        66.50
3797.53        66.50
3798.06        66.50
3798.46        66.50
3799.01        66.50
3799.54        66.50
3800.09        66.50
3800.49        66.50
3801.02        66.50
3801.57        66.50
3801.98        66.50
3802.51        66.50
3803.04        66.50
3803.44        66.50
3803.98        66.50
3804.52        66.50
3805.07        66.50
3805.47        66.50
3805.99        66.50
3806.55        66.50
3806.95        66.50
3807.49        66.50
3808.03        66.50
3808.56        66.50
3808.98        66.50
3809.50        66.50
3810.06        66.50
3810.45        66.50
3810.99        66.50
3811.53        66.50
3812.07        66.50
3812.47        66.50
3813.00        66.50
3813.56        66.50
3813.95        66.50
3814.49        66.50
3815.03        66.50
3815.56        66.50
3815.97        66.50
3816.51        66.50
3817.05        66.50
3817.45        66.50
3817.99        66.50
3818.53        66.50
3819.07        66.50
3819.48        66.50
3820.02        66.50
3820.55        66.50
3820.96        66.50
3821.49        66.50
3822.04        66.50
3822.57        66.50
3822.97        66.50
3823.51        66.50
3824.04        66.50
3824.46        66.50
3824.99        66.50
3825.54        66.50
3826.07        66.50
3826.48        66.50
3827.01        66.50
3827.56        66.50
3827.95        66.50
3828.50        66.50
3829.04        66.50
3829.44        66.50
3829.98        66.50
3830.51        66.50
3831.06        66.50
3831.45        66.50
3832.01        66.50
3832.54        66.50
3832.93        66.50
3833.49        66.50
3834.01        66.50
3834.56        66.50
3834.95        66.50
3835.50        66.50
3836.03        66.50
3836.43        66.50
3836.98        66.50
3837.51        66.50
3838.05        66.50
3838.47        66.50
3839.00        66.50
3839.54        66.50
3839.94        66.50
3840.48        66.50
3841.02        66.50
3841.57        66.00
3841.96        66.50
3842.49        66.50
3843.04        66.00
3843.45        66.00
3843.98        66.50
3844.54        66.50
3844.94        66.00
3845.48        66.00
3846.01        66.50
3846.55        66.00
3846.96        66.00
3847.50        66.50
3848.04        66.50
3848.44        66.00
3848.98        66.00
3849.52        66.00
3850.06        66.50
3850.47        66.50
3850.99        66.50
3851.53        66.00
3851.94        66.50
3852.48        66.00
3853.03        66.00
3853.56        66.00
3853.96        66.00
3854.51        66.00
3855.05        66.00
3855.45        66.00
3855.98        66.00
3856.51        66.00
3857.05        66.00
3857.47        66.00
3858.00        66.00
3858.54        66.00
3858.94        66.00
3859.48        66.00
3860.02        66.00
3860.56        66.00
3860.97        66.00
3861.50        66.00
3862.05        66.00
3862.44        66.00
3862.99        66.00
3863.52        66.00
3863.92        66.00
3864.48        66.00
3865.01        66.00
3865.55        66.00
3865.94        66.00
3866.48        66.00
3867.03        66.00
3867.42        66.00
3867.96        66.00
3868.50        66.00
3869.04        66.00
3869.46        66.00
3869.99        66.00
3870.52        66.00
3870.92        66.00
3871.48        66.00
3872.01        66.00
3872.54        66.00
3872.95        66.00
3873.49        66.00
3874.02        66.00
3874.43        66.00
3874.98        66.00
3875.51        66.00
3876.04        66.00
3876.46        66.00
3876.99        66.00
3877.53        66.00
3877.94        66.00
3878.47        66.00
3879.01        66.00
3879.56        66.00
3879.95        66.00
3880.49        66.00
3881.03        66.00
3881.43        66.00
3881.98        66.00
3882.51        66.00
3883.06        66.00
3883.45        66.00
3883.98        66.00
3884.53        66.00
3884.94        66.00
3885.47        66.00
3886.01        66.00
3886.55        66.00
3886.95        66.00
3887.50        66.00
3888.03        66.00
3888.45        66.00
3888.97        66.00
3889.52        66.00
3890.05        66.00
3890.46        66.00
3891.00        66.00
3891.53        66.00
3891.93        66.00
3892.49        66.00
3893.03        66.00
3893.42        66.00
3893.96        66.00
3894.49        66.00
3895.03        66.00
3895.45        66.00
3895.98        66.00
3896.51        66.00
3896.92        66.00
3897.45        66.00
3898.00        66.00
3898.53        66.00
3898.94        66.00
3899.47        66.00
3900.01        66.00
3900.42        66.00
3900.95        66.00
3901.49        66.00
3902.05        66.00
3902.43        66.00
3902.99        66.00
3903.52        66.00
3903.93        66.00
3904.48        66.00
3905.02        66.00
3905.42        66.00
3905.97        66.00
3906.50        66.00
3907.04        66.00
3907.45        66.00
3907.98        66.00
3908.52        66.00
3908.92        66.00
3909.45        66.00
3909.99        66.00
3910.53        66.00
3910.94        66.00
3911.47        66.00
3912.02        66.00
3912.42        66.00
3912.96        66.00
3913.49        66.00
3914.03        66.00
3914.45        66.00
3914.98        66.00
3915.51        66.00
3915.93        66.00
3916.46        66.00
3917.01        66.00
3917.54        66.00
3917.95        66.00
3918.48        66.00
3919.01        66.00
3919.43        66.00
3919.96        66.00
3920.50        66.00
3921.04        66.00
3921.45        66.00
3921.98        66.00
3922.53        66.00
3922.94        66.00
3923.47        66.00
3924.00        66.00
3924.54        66.00
3924.94        66.00
3925.49        66.00
3926.03        66.00
3926.43        65.50
3926.97        66.00
3927.51        66.00
3927.91        66.00
3928.45        66.00
3928.98        66.00
3929.53        66.00
3929.94        66.00
3930.47        66.00
3931.00        65.50
3931.41        65.50
3931.95        65.50
3932.49        66.00
3933.03        65.50
3933.43        65.50
3933.98        65.50
3934.51        65.50
3934.90        65.50
3935.45        66.00
3935.99        65.50
3936.53        66.00
3936.94        65.50
3937.47        65.50
3938.00        65.50
3938.41        65.50
3938.92      -127.00
3939.48        65.50
3940.01        65.50
3940.41        65.50
3940.97        65.50
3941.50        65.50
3942.03        65.50
3942.45        65.50
3942.98        65.50
3943.52        65.50
3943.91        65.50
3944.47        65.50
3945.00        65.50
3945.41        65.50
3945.94        65.50
3946.49        65.50
3947.02        65.50
3947.43        65.50
3947.97        65.50
3948.51        65.50
3948.90        65.50
3949.44        65.50
3949.99        65.50
3950.52        65.50
3950.92        65.50
3951.47        65.50
3952.00        65.50
3952.42        65.50
3952.94        65.50
3953.48        65.50
3954.03        65.50
3954.44        65.50
3954.96        65.50
3955.51        65.50
3955.90        65.50
3956.45        65.50
3956.98        65.50
3957.53        65.50
3957.92        65.50
3958.46        65.50
3959.01        65.50
3959.40        65.50
3959.96        65.50
3960.49        65.50
3961.02        65.50
3961.44        65.50
3961.98        65.50
3962.51        65.50
3962.91        65.50
3963.45        65.50
3963.99        65.50
3964.40        65.50
3964.94        65.50
3965.48        65.50
3966.02        65.50
3966.43        65.50
3966.96        65.50
3967.51        65.50
3967.90        65.50
3968.45        65.50
3969.00        65.50
3969.52        65.50
3969.93        65.50
3970.47        65.50
3971.00        65.50
3971.41        65.50
3971.95        65.50
3972.50        65.50
3973.03        65.50
3973.42        65.50
3973.97        65.50
3974.51        65.50
3974.90        65.50
3975.44        65.50
3975.98        65.50
3976.39        65.50
3976.93        65.50
3977.47        65.50
3978.01        65.50
3978.41        65.50
3978.95        65.50
3979.48        65.50
3979.89        65.50
3980.43        65.50
3980.97        65.50
3981.51        65.50
3981.92        65.50
3982.45        65.50
3983.00        65.50
3983.39        65.50
3983.94        65.50
3984.47        65.50
3985.02        65.50
3985.41        65.50
3985.95        65.50
3986.50        65.50
3986.89        65.50
3987.45        65.50
3987.98        65.50
3988.50        65.50
3988.92        65.50
3989.47        65.50
3990.00        65.50
3990.40        65.50
3990.94        65.50
3991.47        65.50
3992.01        65.50
3992.43        65.50
3992.95        65.50
3993.49        65.50
3993.90        65.50
3994.43        65.00
3994.99        65.00
3995.52        65.00
3995.92        65.00
3996.45        65.50
3996.99        65.00
3997.41        65.00
3997.95        65.00
3998.47        65.00
3999.02        65.00
3999.42        65.00
3999.97        65.00
4000.50        65.00
4000.90        65.00
4001.45        65.00
4001.98        65.00
4002.53        65.00
4002.92        65.00
4003.46        65.00
4003.99        65.00
4004.40        65.00
4004.95        65.00
4005.49        65.00
4005.88        65.00
4006.42        65.00
4006.96        65.00
4007.50        65.00
4007.91        65.00
4008.45        65.00
4008.98        65.00
4009.40        65.00
4009.93        65.00
4010.48        65.00
4011.01        65.00
4011.40        65.00
4011.94        65.00
4012.50        65.00
4012.89        65.00
4013.43        65.00
4013.96        65.00
4014.50        65.00
4014.92        65.00
4015.45        65.00
4015.99        65.00
4016.39        65.00
4016.92        65.00
4017.46        65.00
4018.01        65.00
4018.41        65.00
4018.95        65.00
4019.50        65.00
4019.89        65.00
4020.43        65.00
4020.97        65.00
4021.51        65.00
4021.90        65.00
4022.45        65.00
4022.99        65.00
4023.40        65.00
4023.93        65.00
4024.49        65.00
4024.89        65.00
4025.42        65.00
4025.96        65.00
4026.50        65.00
4026.91        65.00
4027.45        65.00
4027.99        65.00
4028.38        65.00
4028.92        65.00
4029.47        65.00
4030.01        65.00
4030.41        65.00
4030.94        65.00
4031.49        65.00
4031.89        65.00
4032.44        65.00
4032.97        65.00
4033.51        65.00
4033.91        65.00
4034.46        65.00
4034.99        65.00
4035.39        65.00
4035.93        65.00
4036.47        65.00
4037.01        65.00
4037.42        65.00
4037.95        65.00
4038.49        65.00
4038.89        65.00
4039.43        65.00
4039.98        65.00
4040.37        65.00
4040.91        65.00
4041.45        65.00
4041.98        65.00
4042.40        65.00
4042.93        65.00
4043.47        65.00
4043.88        65.00
4044.43        65.00
4044.95        65.00
4045.48        65.00
4045.89        64.50
4046.44        65.00
4046.97        65.00
4047.38        64.50
4047.91        65.00
4048.44        64.50
4049.00        64.50
4049.39        64.50
4049.93        65.00
4050.47        64.50
4050.89        64.50
4051.42        64.50
4051.96        64.50
4052.50        64.50
4052.91        64.50
4053.43        64.50
4053.98        64.50
4054.38        64.50
4054.92        64.50
4055.46        64.50
4056.00        64.50
4056.40        64.50
4056.95        64.50
4057.48        64.50
4057.89        64.50
4058.41        64.50
4058.96        64.50
4059.49        64.50
4059.89        64.50
4060.45        64.50
4060.97        64.50
4061.38        64.50
4061.91        64.50
4062.47        64.50
4063.00        64.50
4063.40        64.50
4063.93        64.50
4064.48        64.50
4064.88        64.50
4065.43        64.50
4065.95        64.50
4066.36        64.50
4066.91        64.50
4067.44        64.50
4067.99        64.50
4068.38        64.50
4068.93        64.50
4069.46        64.50
4069.86        64.50
4070.42        64.50
4070.94        64.50
4071.48        64.50
4071.89        64.50
4072.43        64.50
4072.95        64.50
4073.38        64.50
4073.91        64.50
4074.44        64.50
4074.99        64.50
4075.38        64.50
4075.94        64.50
4076.47        64.50
4076.87        64.50
4077.41        64.50
4077.94        64.50
4078.48        64.50
4078.89        64.50
4079.44        64.50
4079.97        64.50
4080.37        64.50
4080.90        64.50
4081.46        64.50
4081.98        64.50
4082.40        64.50
4082.94        64.50
4083.47        64.50
4083.86        64.50
4084.42        64.50
4084.96        64.50
4085.37        64.50
4085.91        64.50
4086.45        64.50
4086.98        64.50
4087.40        64.50
4087.93        64.50
4088.47        64.50
4088.88        64.50
4089.41        64.50
4089.96        64.50
4090.49        64.50
4090.90        64.50
4091.42        64.50
4091.96        64.50
4092.37        64.50
4092.91        64.50
4093.44        64.50
4093.98        64.00
4094.39        64.00
4094.93        64.50
4095.48        64.50
4095.86        64.50
4096.41        64.00
4096.94        64.50
4097.50        64.00
4097.89        64.00
4098.43        64.00
4098.97        64.00
4099.37        64.00
4099.91        64.00
4100.45        64.00
4100.98        64.00
4101.39        64.00
4101.93        64.00
4102.47        64.00
4102.87        64.00
4103.41        64.00
4103.95        64.00
4104.35        64.00
4104.89        64.00
4105.44        64.00
4105.97        64.00
4106.37        64.00
4106.92        64.00
4107.46        64.00
4107.86        64.00
4108.39        64.00
4108.93        64.00
4109.47        64.00
4109.87        64.00
4110.41        64.00
4110.95        64.00
4111.36        64.00
4111.89        64.00
4112.43        64.00
4112.97        64.00
4113.37        64.00
4113.93        64.00
4114.45        64.00
4114.86        64.00
4115.39        64.00
4115.95        64.00
4116.48        64.00
4116.88        64.00
4117.42        64.00
4117.95        64.00
4118.36        64.00
4118.90        64.00
4119.43        64.00
4119.99        64.00
4120.39        64.00
4120.92        64.00
4121.47        64.00
4121.85        64.00
4122.40        64.00
4122.94        64.00
4123.48        64.00
4123.87        64.00
4124.41        64.00
4124.97        64.00
4125.36        64.00
4125.90        64.00
4126.44        64.00
4126.97        64.00
4127.39        64.00
4127.92        64.00
4128.46        64.00
4128.85      -127.00
4129.39        64.00
4129.94        64.00
4130.48        64.00
4130.89        64.00
4131.41        64.00
4131.96        64.00
4132.37        64.00
4132.91        64.00
4133.45        64.00
4133.84        64.00
4134.38        64.00
4134.93        64.00
4135.45        64.00
4135.88        64.00
4136.41        64.00
4136.95        64.00
4137.35        63.50
4137.89        64.00
4138.43        63.50
4138.96        63.50
4139.37        64.00
4139.91        63.50
4140.44        63.50
4140.86        63.50
4141.39        63.50
4141.93        63.50
4142.46        63.50
4142.87        63.50
4143.40        63.50
4143.94        63.50
4144.37        63.50
4144.90        63.50
4145.45        63.50
4145.85        63.50
4146.39        63.50
4146.93        63.50
4147.47        63.50
4147.86        63.50
4148.41        63.50
4148.95        63.50
4149.35        63.50
4149.89        63.50
4150.43        63.50
4150.96        63.50
4151.37        63.50
4151.91        63.50
4152.44        63.50
4152.86        63.50
4153.38        63.50
4153.92        63.50
4154.46        63.50
4154.86        63.50
4155.41        63.50
4155.95        63.50
4156.34        63.50
4156.90        63.50
4157.43        63.50
4157.96        63.50
4158.37        63.50
4158.92        63.50
4159.44        63.50
4159.84        63.50
4160.39        63.50
4160.92        63.50
4161.46        63.50
4161.86        63.50
4162.41        63.50
4162.94        63.50
4163.36        63.50
4163.89        63.50
4164.44        63.50
4164.96        63.50
4165.37        63.50
4165.92        63.50
4166.44        63.50
4166.85        63.50
4167.38        63.50
4167.93        63.50
4168.47        63.50
4168.87        63.50
4169.41        63.50
4169.95        63.50
4170.36        63.50
4170.89        63.50
4171.43        63.50
4171.84        63.50
4172.38        63.50
4172.91        63.50
4173.45        63.50
4173.85        63.50
4174.39        63.50
4174.94        63.50
4175.34        63.50
4175.89        63.50
4176.41        63.50
4176.95        63.50
4177.35        63.50
4177.89        63.50
4178.45        63.50
4178.83        63.50
4179.37        63.50
4179.91        63.50
4180.45        63.50
4180.86        63.50
4181.41        63.50
4181.94        63.50
4182.34        63.50
4182.87        63.50
4183.43        63.50
4183.96        63.50
4184.36        63.50
4184.89        63.50
4185.43        63.50
4185.84        63.00
4186.38        63.00
4186.92        63.50
4187.46        63.00
4187.86        63.50
4188.40        63.00
4188.94        63.00
4189.35        63.00
4189.89        63.00
4190.43        63.00
4190.96        63.00
4191.37        63.00
4191.90        63.00
4192.45        63.00
4192.84        63.00
4193.39        63.00
4193.93        63.00
4194.45        63.00
4194.86        63.00
4195.39        63.00
4195.94        63.00
4196.36        63.00
4196.89        63.00
4197.42        63.00
4197.82        63.00
4198.37        63.00
4198.90        63.00
4199.45        63.00
4199.84        63.00
4200.38        63.00
4200.91        63.00
4201.33        63.00
4201.87        63.00
4202.41        63.00
4202.94        63.00
4203.35        63.00
4203.89        63.00
4204.44        63.00
4204.83        63.00
4205.39        63.00
4205.92        63.00
4206.33        63.00
4206.86        63.00
4207.40        63.00
4207.94        63.00
4208.35        63.00
4208.88        63.00
4209.43        63.00
4209.83        63.00
4210.37        63.00
4210.91        63.00
4211.45        63.00
4211.85        63.00
4212.38        63.00
4212.93        63.00
4213.33        63.00
4213.87        63.00
4214.41        63.00
4214.95        63.00
4215.34        63.00
4215.88        63.00
4216.43        63.00
4216.82        63.00
4217.36        63.00
4217.91        63.00
4218.44        63.00
4218.86        63.00
4219.39        63.00
4219.93        63.00
4220.33        63.00
4220.88        62.50
4221.41        62.50
4221.95        62.50
4222.35        63.00
4222.89        62.50
4223.42        62.50
4223.82        62.50
4224.38        62.50
4224.91        62.50
4225.44        62.50
4225.86        62.50
4226.40        62.50
4226.93        62.50
4227.33        62.50
4227.88        62.50
4228.41        62.50
4228.96        62.50
4229.34        62.50
4229.88        62.50
4230.44        62.50
4230.83        62.50
4231.37        62.50
4231.91        62.50
4232.32        62.50
4232.86        62.50
4233.40        62.50
4233.93        62.50
4234.33        62.50
4234.87        62.50
4235.41        62.50
4235.82        62.50
4236.36        62.50
4236.89        62.50
4237.43        62.50
4237.83        62.50
4238.38        62.50
4238.91        62.50
4239.33        62.50
4239.86        62.50
4240.39        62.50
4240.94        62.50
4241.33        62.50
4241.88        62.50
4242.41        62.50
4242.81        62.50
4243.35        62.50
4243.90        62.50
4244.44        62.50
4244.84        62.50
4245.38        62.50
4245.91        62.50
4246.32        62.50
4246.86        62.50
4247.40        62.50
4247.93        62.50
4248.35        62.50
4248.89        62.50
4249.42        62.50
4249.82        62.50
4250.36        62.50
4250.91        62.50
4251.43        62.50
4251.83        62.50
4252.39        62.50
4252.92        62.50
4253.32        62.00
4253.86        62.50
4254.40        62.00
4254.95        62.00
4255.34        62.50
4255.88        62.50
4256.43        62.00
4256.82        62.50
4257.36        62.00
4257.90        62.00
4258.32        62.50
4258.84        62.00
4259.39        62.00
4259.92        62.00
4260.33        62.00
4260.86        62.00
4261.40        62.00
4261.82        62.00
4262.35        62.00
4262.90        62.00
4263.42        62.00
4263.83        62.00
4264.38        62.00
4264.92        62.00
4265.32        62.00
4265.87        62.00
4266.40        62.00
4266.82        62.00
4267.34        62.00
4267.88        62.00
4268.42        62.00
4268.83        62.00
4269.36        62.00
4269.90        62.00
4270.31        62.00
4270.84        62.00
4271.38        62.00
4271.92        62.00
4272.34        62.00
4272.87        62.00
4273.40        62.00
4273.80        62.00
4274.35        62.00
4274.89        62.00
4275.42        62.00
4275.84        62.00
4276.36        62.00
4276.90        62.00
4277.32        62.00
4277.85        62.00
4278.39        62.00
4278.93        62.00
4279.34        62.00
4279.87        62.00
4280.41        62.00
4280.82        62.00
4281.36        62.00
4281.89        62.00
4282.42        62.00
4282.83        62.00
4283.37        62.00
4283.92        62.00
4284.32        62.00
4284.86        62.00
4285.39        62.00
4285.92        62.00
4286.32        62.00
4286.88        62.00
4287.42        62.00
4287.81        62.00
4288.35        62.00
4288.89        62.00
4289.42        62.00
4289.83        62.00
4290.37        62.00
4290.90        62.00
4291.32        62.00
4291.85        62.00
4292.40        62.00
4292.94        62.00
4293.33        62.00
4293.87        62.00
4294.42        62.00
4294.81        62.00
4295.35        61.50
4295.91        61.50
4296.29        61.50
4296.83        62.00
4297.37        61.50
4297.93        61.50
4298.32        61.50
4298.87        61.50
4299.40        61.50
4299.81        61.50
4300.36        61.50
4300.89        61.50
4301.44        61.50
4301.83        61.50
4302.38        61.50
4302.91        61.50
4303.31        61.50
4303.84        61.50
4304.39        61.50
4304.81        61.50
4305.34        61.50
4305.87        61.50
4306.40        61.50
4306.82        61.50
4307.35        61.50
4307.90        61.50
4308.29        61.50
4308.84        61.50
4309.38        61.50
4309.91        61.50
4310.32        61.50
4310.86        61.50
4311.39        61.50
4311.80        61.50
4312.33        61.50
4312.88        61.50
4313.42        61.50
4313.82        61.50
4314.35        61.50
4314.90        61.50
4315.29        61.50
4315.83        61.50
4316.37        61.50
4316.92        61.50
4317.32        61.50
4317.87        61.50
4318.39        61.50
4318.80        61.50
4319.35        61.50
4319.88        61.50
4320.41        61.50
4320.82        61.50
4321.35        61.50
4321.90        61.50
4322.30        61.50
4322.85        61.50
4323.39        61.50
4323.94        61.50
4324.33        61.50
4324.88        61.50
4325.41        61.50
4325.81        61.50
4326.35        61.50
4326.89        61.50
4327.31        61.50
4327.85        61.50
4328.37        61.50
4328.92        61.50
4329.32        61.50
4329.86        61.50
4330.40        61.50
4330.81        61.50
4331.35        61.50
4331.88        61.50
4332.41        61.50
4332.82        61.50
4333.36        61.50
4333.90        61.50
4334.31        61.50
4334.85        61.00
4335.38        61.00
4335.92        61.00
4336.32        61.00
4336.85        61.00
4337.41        61.00
4337.80        61.00
4338.35        61.00
4338.88        61.00
4339.29        61.00
4339.82        61.00
4340.36        61.00
4340.90        61.00
4341.30        61.00
4341.84        61.00
4342.36      -127.00
4342.90        61.00
4343.30        61.00
4343.85        61.00
4344.38        61.00
4344.79        61.00
4345.32        61.00
4345.88        61.00
4346.41        61.00
4346.81        61.00
4347.36        61.00
4347.90        61.00
4348.30        61.00
4348.83        61.00
4349.38        61.00
4349.77        61.00
4350.32        61.00
4350.85        61.00
4351.41        61.00
4351.79        61.00
4352.35        61.00
4352.89        61.00
4353.28        61.00
4353.82        61.00
4354.36        61.00
4354.90        61.00
4355.30        61.00
4355.85        61.00
4356.38        61.00
4356.79        61.00
4357.32        61.00
4357.86        61.00
4358.40        61.00
4358.81        61.00
4359.35        61.00
4359.89        61.00
4360.28        61.00
4360.83        61.00
4361.36        61.00
4361.89        61.00
4362.30        61.00
4362.84        61.00
4363.39        61.00
4363.78        61.00
4364.33        61.00
4364.86        61.00
4365.40        61.00
4365.80        61.00
4366.35        61.00
4366.88        61.00
4367.30        61.00
4367.83        61.00
4368.36        61.00
4368.90        61.00
4369.32        61.00
4369.85        61.00
4370.39        61.00
4370.79        60.50
4371.33        61.00
4371.87        61.00
4372.40        61.00
4372.81        60.50
4373.34        61.00
4373.89        60.50
4374.28        60.50
4374.83        60.50
4375.36        60.50
4375.90        60.50
4376.32        60.50
4376.86        60.50
4377.39        60.50
4377.78        60.50
4378.34        60.50
4378.88        60.50
4379.28        60.50
4379.81        60.50
4380.35        60.50
4380.89        60.50
4381.30        60.50
4381.83        60.50
4382.38        60.50
4382.78        60.50
4383.30        60.50
4383.86        60.50
4384.27        60.50
4384.80        60.50
4385.35        60.50
4385.88        60.50
4386.29        60.50
4386.83        60.50
4387.37        60.50
4387.77        60.50
4388.31        60.50
4388.85        60.50
4389.39        60.50
4389.78        60.50
4390.32        60.50
4390.87        60.50
4391.28        60.50
4391.81        60.50
4392.35        60.50
4392.90        60.50
4393.29        60.50
4393.83        60.50
4394.38        60.50
4394.77        60.50
4395.32        60.50
4395.85        60.50
4396.38        60.50
4396.80        60.50
4397.33        60.50
4397.88        60.50
4398.27        60.50
4398.81        60.50
4399.34        60.50
4399.90        60.50
4400.29        60.50
4400.84        60.50
4401.37        60.50
4401.79        60.50
4402.32        60.50
4402.86        60.50
4403.40        60.50
4403.79        60.50
4404.33        60.50
4404.87        60.50
4405.29        60.50
4405.82        60.50
4406.35        60.50
4406.90        60.50
4407.29        60.50
4407.83        60.50
4408.37        60.50
4408.77        60.50
4409.32        60.00
4409.85        60.00
4410.40        60.00
4410.79        60.00
4411.33        60.00
4411.88        60.00
4412.28        60.00
4412.81        60.00
4413.35        60.00
4413.76        60.00
4414.30        60.00
4414.84        60.00
4415.38        60.00
4415.78        60.00
4416.32        60.00
4416.85        60.00
4417.27        60.00
4417.80        60.00
4418.34        60.00
4418.88        60.00
4419.29        60.00
4419.83        60.00
4420.37        60.00
4420.76        60.00
4421.31        60.00
4421.85        60.00
4422.39        60.00
4422.79        60.00
4423.32        60.00
4423.87        60.00
4424.27        60.00
4424.80        60.00
4425.34        60.00
4425.88        60.00
4426.29        60.00
4426.82        60.00
4427.36        60.00
4427.77        60.00
4428.31        60.00
4428.85        60.00
4429.38        60.00
4429.78        60.00
4430.32        60.00
4430.87        60.00
4431.27        60.00
4431.80        60.00
4432.35        60.00
4432.88        60.00
4433.28        60.00
4433.82        60.00
4434.37        60.00
4434.77        60.00
4435.32        60.00
4435.85        60.00
4436.40        60.00
4436.79        60.00
4437.34        60.00
4437.87        60.00
4438.28        60.00
4438.80        60.00
4439.35        60.00
4439.76        60.00
4440.29        60.00
4440.84        60.00
4441.37        60.00
4441.78        60.00
4442.32        60.00
4442.84        60.00
4443.26        60.00
4443.80        60.00
4444.36        60.00
4444.89        60.00
4445.28        60.00
4445.82        60.00
4446.37        60.00
4446.77        60.00
4447.31        60.00
4447.86        60.00
4448.25        60.00
4448.80        60.00
4449.33        60.00
4449.87        60.00
4450.28        60.00
4450.80        60.00
4451.36        60.00
4451.74        60.00
4452.30        60.00
4452.83        60.00
4453.37        59.50
4453.77        59.50
4454.31        59.50
4454.85        59.50
4455.25        59.50
4455.78        59.50
4456.34        59.50
4456.87        59.50
4457.27        59.50
4457.82        59.50
4458.35        59.50
4458.75        59.50
4459.30        59.50
4459.84        59.50
4460.36        59.50
4460.78        59.50
4461.32        59.50
4461.85        59.50
4462.26        59.50
4462.80        59.50
4463.34        59.50
4463.88        59.50
4464.27        59.50
4464.82        59.50
4465.36        59.50
4465.76        59.50
4466.30        59.50
4466.83        59.50
4467.37        59.50
4467.78        59.50
4468.32        59.50
4468.86        59.50
4469.26        59.50
4469.81        59.50
4470.34        59.50
4470.88        59.50
4471.28        59.50
4471.82        59.50
4472.36        59.50
4472.76        59.50
4473.30        59.50
4473.83        59.50
4474.37        59.50
4474.78        59.50
4475.32        59.50
4475.87        59.50
4476.26        59.50
4476.80        59.50
4477.35        59.50
4477.74        59.50
4478.29        59.50
4478.80        59.50
4479.35        59.50
4479.75        59.50
4480.29        59.50
4480.83        59.50
4481.37        59.50
4481.77        59.50
4482.31        59.50
4482.86        59.50
4483.25        59.50
4483.80        59.50
4484.33        59.50
4484.87        59.50
4485.28        59.50
4485.83        59.50
4486.36        59.50
4486.77        59.50
4487.30        59.50
4487.85        59.50
4488.24        59.50
4488.79        59.50
4489.32        59.50
4489.85        59.50
4490.26        59.50
4490.81        59.50
4491.34        59.50
4491.74        59.50
4492.28        59.50
4492.81        59.50
4493.35        59.50
4493.76        59.50
4494.30        59.50
4494.83        59.50
4495.24        59.50
4495.78        59.50
4496.32        59.50
4496.87        59.50
4497.26        59.50
4497.80        59.50
4498.35        59.50
4498.75        59.50
4499.28        59.50
4499.82        59.50
4500.36        59.50
4500.77        59.50
4501.30        59.50
4501.85        59.50
4502.24        59.50
4502.78        59.00
4503.33        59.00
4503.87        59.00
4504.28        59.00
4504.82        59.00
4505.37        59.00
4505.76        59.00
4506.31        59.00
4506.84        59.00
4507.24        59.50
4507.78        59.00
4508.32        59.00
4508.86        59.00
4509.27        59.00
4509.81        59.00
4510.34        59.00
4510.75        59.00
4511.28        59.00
4511.82        59.00
4512.36        59.00
4512.76        59.00
4513.30        59.00
4513.84        59.00
4514.24        59.00
4514.79        59.00
4515.33        59.00
4515.87        59.00
4516.26        59.00
4516.81        59.00
4517.35        59.00
4517.74        59.00
4518.28        59.00
4518.82        59.00
4519.22        59.00
4519.77        59.00
4520.30        59.00
4520.84        59.00
4521.24        59.00
4521.79        59.00
4522.33        59.00
4522.74        59.00
4523.26        59.00
4523.81        59.00
4524.35        59.00
4524.76        59.00
4525.28        59.00
4525.83        59.00
4526.23        59.00
4526.78        59.00
