Temperature log
time (s) Temperature (°C)
  2.31        20.50
  2.84        20.50
  3.38        20.50
  3.78        20.50
  4.32        20.50
  4.86        20.50
  5.40        20.50
  5.81        20.50
  6.34        20.50
  6.89        20.50
  7.29        20.50
  7.84        20.50
  8.37        20.50
  8.77        20.50
  9.31        20.50
  9.86        20.50
 10.38        20.50
 10.79        20.50
 11.32        20.50
 11.86        20.50
 12.26        20.50
 12.81        20.50
 13.35        20.50
 13.90        20.50
 14.29        20.50
 14.84        20.50
 15.38        20.50
 15.78        20.50
 16.33        20.50
 16.87        20.50
 17.27        20.50
 17.82        20.50
 18.34        20.50
 18.89        20.50
 19.30        20.50
 19.84        20.50
 20.38        20.50
 20.78        20.50
 21.33        20.50
 21.85        20.50
 22.27        20.50
 22.82        20.50
 23.34        20.50
 23.89        20.50
 24.31        20.50
 24.84        20.50
 25.37        20.50
 25.79        20.50
 26.31        20.50
 26.86        20.50
 27.26        20.50
 27.80        20.50
 28.35        20.50
 28.90        20.50
 29.29        20.50
 29.84        20.50
 30.38        20.50
 30.77        20.50
 31.31        20.50
 31.86        20.50
 32.26        20.50
 32.81        20.50
 33.35        20.50
 33.89        20.50
 34.29        20.50
 34.84        20.50
 35.38        20.50
 35.78        20.50
 36.32        20.50
 36.84        20.50
 37.27        20.50
 37.79        20.50
 38.33        20.50
 38.88        20.50
 39.28        20.50
 39.82        20.50
 40.37        20.50
 40.77        20.50
 41.31        20.50
 41.84        20.50
 42.38        20.50
 42.79        20.50
 43.34        20.50
 43.88        20.50
 44.28        20.50
 44.82        20.50
 45.37        20.50
 45.77        20.50
 46.31        20.50
 46.85        20.50
 47.38        20.50
 47.80        20.50
 48.34        20.50
 48.86        20.50
 49.29        20.50
 49.83        20.50
 50.35        20.50
 50.77        20.50
 51.29        20.50
 51.84        20.50
 52.38        20.50
 52.78        20.50
 53.33        20.50
 53.88        20.50
 54.28        20.50
 54.82        20.50
 55.36        20.50
 55.76        20.50
 56.30        20.50
 56.85        20.50
 57.37        20.50
 57.80        20.50
 58.33        20.50
 58.88        20.50
 59.27        20.50
 59.82        20.50
 60.36        20.50
 60.76        20.50
 61.30        20.50
 61.84        20.50
 62.39        20.50
 62.78        20.50
 63.33        20.50
 63.87        20.50
 64.27        20.50
 64.81        20.50
 65.36        20.50
 65.76        20.50
 66.30        20.50
 66.84        20.50
 67.38        20.50
 67.78        20.50
 68.33        20.50
 68.87        20.50
 69.27        20.50
 69.82        20.50
 70.35        20.50
 70.75        20.50
 71.30        20.50
 71.84        20.50
 72.38        20.50
 72.78        20.50
 73.31        20.50
 73.85        20.50
 74.25        20.50
 74.80        20.50
 75.34        20.50
 75.75        20.50
 76.30        20.50
 76.84        20.50
 77.36        20.50
 77.78        20.50
 78.32        20.50
 78.86        20.50
 79.25        20.50
 79.80        20.50
 80.35        20.50
 80.89        20.50
 81.29        20.50
 81.83        20.50
 82.37        20.50
 82.77        20.50
 83.31        20.50
 83.86        20.50
 84.26        20.50
 84.79        20.50
 85.34        20.50
 85.88        20.50
 86.28        20.50
 86.82        20.50
 87.37        20.50
 87.77        20.50
 88.31        20.50
 88.85        20.50
 89.25        20.50
 89.79        20.50
 90.34        20.50
 90.88        20.50
 91.28        20.50
 91.82        20.50
 92.36        20.50
 92.77        20.50
 93.30        20.50
 93.84        20.50
 94.25        20.50
 94.80        20.50
 95.32        20.50
 95.87        20.50
 96.28        20.50
 96.82        20.50
 97.36        20.50
 97.76        20.50
 98.31        20.50
 98.85        20.50
 99.25        20.50
 99.79        20.50
100.33        20.50
100.88        20.50
101.27        20.50
101.81        20.50
102.35        20.50
102.75        20.50
103.29        20.50
103.84        20.50
104.24        20.50
104.78        20.50
105.33        20.50
105.87        20.50
106.27        20.50
106.81        20.50
107.35        20.50
107.76        20.50
108.29        20.50
108.83        20.50
109.23        20.50
109.78        20.50
110.32        20.50
110.87        20.50
111.27        20.50
111.81        20.50
112.35        20.50
112.75        20.50
113.30        20.50
113.84        20.50
114.24        20.50
114.79        20.50
115.32        20.50
115.87        20.50
116.29        20.50
116.81        20.50
117.36        20.50
117.76        20.50
118.30        20.50
118.85        20.50
119.25        20.50
119.79        20.50
120.34        20.50
120.74        20.50
121.28        20.50
121.82        20.50
122.22        20.50
122.79        20.50
123.31        20.50
123.85        20.50
124.27        20.50
124.80        20.50
125.35        20.50
125.75        20.50
126.30        20.50
126.83        20.50
127.25        20.50
127.79        20.50
128.33        20.50
128.74        20.50
129.26        20.50
129.83        20.50
130.35        20.50
130.77        20.50
131.31        20.50
131.85        20.50
132.25        20.50
132.80        20.50
133.34        20.50
133.74        20.50
134.29        20.50
134.83        20.50
135.23        20.50
135.77        20.50
136.31        20.50
136.86        20.50
137.26        20.50
137.80        20.50
138.34        20.50
138.76        20.50
139.30        20.50
139.85        20.50
140.24        20.50
140.78        20.50
141.33        20.50
141.73        20.50
142.28        20.50
142.80        20.50
143.35        20.50
143.77        20.50
144.30        20.50
144.84        20.50
145.25        20.50
145.79        20.50
146.34        20.50
146.74        20.50
147.28        20.50
147.83        20.50
148.23        20.50
148.77        20.50
149.32        20.50
149.86        20.50
150.26        20.50
150.81        20.50
151.35        20.50
151.75        20.50
152.29        20.50
152.83        20.50
153.24        20.50
153.78        20.50
154.32        20.50
154.72        20.50
155.27        20.50
155.81        20.50
156.36        20.50
156.76        20.50
157.30        20.50
157.84        20.50
158.24        20.50
158.79        20.50
159.33        20.50
159.75        20.50
160.29        20.50
160.83        20.50
161.22        20.50
161.76        20.50
162.31        20.50
162.85        20.50
163.27        20.50
163.80        20.50
164.34        20.50
164.75        20.50
165.29        20.50
165.84        20.50
166.24        20.50
166.77        20.50
167.32        20.50
167.74        20.50
168.26        20.50
168.80        20.50
169.35        20.50
169.75        20.50
170.30        20.50
170.84        20.50
171.26        20.50
171.80        20.50
172.34        20.50
172.74        20.50
173.29        20.50
173.83        20.50
174.23        20.50
174.77        20.50
175.32        20.50
175.72        20.50
176.26        20.50
176.81        20.50
177.34        20.50
177.75        20.50
178.28        20.50
178.83        20.50
179.23        20.50
179.78        20.50
180.32        20.50
180.72        20.50
181.27        20.50
181.81        20.50
182.21        20.50
182.76        20.50
183.31        20.50
183.83        20.50
184.26        20.50
184.78        20.50
185.32        20.50
185.74        20.50
186.29        20.50
186.83        20.50
187.23        20.50
187.77        20.50
188.32        20.50
188.72        20.50
189.26        20.50
189.80        20.50
190.34        20.50
190.75        20.50
191.29        20.50
191.84        20.50
192.24        20.50
192.78        20.50
193.32        20.50
193.73        20.50
194.27        20.50
194.80        20.50
195.22        21.00
195.76        20.50
196.30        20.50
196.85        20.50
197.24        20.50
197.79        20.50
198.33        20.50
198.74        21.00
199.28        21.00
199.83        21.00
200.23        21.00
200.77        20.50
201.31        21.00
201.71        21.00
202.25        21.00
202.80        21.00
203.34        21.00
203.74        21.00
204.29        21.00
204.84        21.00
205.23        21.00
205.78        21.00
206.32        21.00
206.72        21.00
207.27        21.00
207.81        21.00
208.21        21.00
208.75        21.00
209.30        21.00
209.84        21.00
210.24        21.00
210.79        21.00
211.33        21.00
211.73        21.00
212.27        21.00
212.82        21.00
213.22        21.00
213.76        21.00
214.31        21.00
214.71        21.00
215.26        21.00
215.80        21.00
216.35        21.00
216.74        21.00
217.29        21.00
217.84        21.00
218.23        21.00
218.78        21.00
219.32        21.00
219.72        21.00
220.26        21.00
220.81        21.00
221.21        21.00
221.76        21.00
222.30        21.00
222.84        21.00
223.25        21.00
223.79        21.00
224.33        21.00
224.73        21.00
225.27        21.00
225.81        21.00
226.22        21.00
226.77        21.00
227.31        21.00
227.71        21.00
228.25        21.00
228.79        21.00
229.33        21.00
229.73        21.00
230.28        21.00
230.83        21.00
231.23        21.00
231.77        21.00
232.31        21.00
232.72        21.00
233.25        21.00
233.80        21.00
234.22        21.00
234.76        21.00
235.29        21.00
235.69        21.00
236.24        21.00
236.78        21.00
237.32        21.00
237.73        21.00
238.28        21.00
238.80        21.00
239.22        21.00
239.77        21.00
240.31        21.00
240.71        21.00
241.25        21.00
241.79        21.00
242.19        21.00
242.74        21.00
243.28        21.00
243.83        21.00
244.23        21.00
244.77        21.00
245.31        21.00
245.73        21.00
246.27        21.00
246.80        21.00
247.21        21.00
247.75        21.00
248.28        21.50
248.70        21.50
249.24        21.00
249.77        21.00
250.32        21.00
250.72        21.50
251.26        21.50
251.81        21.50
252.21        21.50
252.75        21.50
253.30        21.50
253.70        21.50
254.24        21.50
254.79        21.50
255.19        21.50
255.74        21.50
256.29        21.50
256.83        21.50
257.23        21.50
257.77        21.50
258.31        21.50
258.71        21.50
259.26        21.50
259.80        21.50
260.20        21.50
260.75        21.50
261.28        21.50
261.68        21.50
262.25        21.50
262.79        21.50
263.33        21.50
263.73        21.50
264.27        21.50
264.82        21.50
265.22        21.50
265.76        21.50
266.30        21.50
266.71        21.50
267.25        21.50
267.79        21.50
268.19        21.50
268.74        21.50
269.28        21.50
269.82        21.50
270.22        21.50
270.77        21.50
271.31        21.50
271.71        21.50
272.26        21.50
272.79        21.50
273.21        21.50
273.75        21.50
274.30        21.50
274.69        21.50
275.24        21.50
275.78        21.50
276.32        21.50
276.72        21.50
277.27        21.50
277.80        21.50
278.20        21.50
278.75        21.50
279.30        21.50
279.70        21.50
280.24        21.50
280.79        21.50
281.19        22.00
281.73        21.50
282.27        21.50
282.82        22.00
283.22        22.00
283.76        21.50
284.30        22.00
284.71        21.50
285.25        22.00
285.80        22.00
286.20        22.00
286.74        22.00
287.28        22.00
287.69        22.00
288.23        22.00
288.78        22.00
289.31        22.00
289.71        22.00
290.26        22.00
290.80        22.00
291.22        22.00
291.74        22.00
292.29        22.00
292.71        22.00
293.25        22.00
293.78        22.00
294.20        22.00
294.74        22.00
295.28        22.00
295.69        22.00
296.22        22.00
296.77        22.00
297.31        22.00
297.72        22.00
298.26        22.00
298.80        22.00
299.20        22.00
299.75        22.00
300.29        22.00
300.68        22.00
301.23        22.00
301.77        22.00
302.17        22.00
302.72        22.00
303.26        22.00
303.81        22.00
304.21        22.00
304.75        22.00
305.30        22.00
305.71        22.00
306.25        22.00
306.79        22.00
307.18        22.00
307.73        22.00
308.27        22.00
308.67        22.50
309.21        22.50
309.75        22.50
310.30        22.50
310.71        22.50
311.25        22.50
311.79        22.50
312.19        22.50
312.73        22.50
313.28        22.50
313.68        22.50
314.23        22.50
314.78        22.50
315.18        22.50
315.72        22.50
316.27        22.50
316.81        22.50
317.20        22.50
317.74        22.50
318.29        22.50
318.71        22.50
319.25        22.50
319.79        22.50
320.19        22.50
320.74        22.50
321.28        22.50
321.68        22.50
322.22        22.50
322.76        22.50
323.31        22.50
323.71        22.50
324.25        22.50
324.80        22.50
325.19        22.50
325.74        22.50
326.28        22.50
326.68        22.50
327.23        22.50
327.77        22.50
328.17        22.50
328.71        22.50
329.26        22.50
329.80        22.50
330.20        23.00
330.75        23.00
331.29        23.00
331.69        23.00
332.24        23.00
332.79        23.00
333.18        23.00
333.73        23.00
334.26        23.00
334.69        23.00
335.23        23.00
335.75        23.00
336.30        23.00
336.70        23.00
337.25        23.00
337.79        23.00
338.19        23.00
338.74        23.00
339.29        23.00
339.69        23.00
340.23        23.00
340.77        23.00
341.17        23.00
341.71        23.00
342.25        23.00
342.80        23.00
343.21        23.00
343.75        23.00
344.29        23.00
344.69        23.00
345.24        23.00
345.79        23.00
346.18        23.00
346.73        23.00
347.27        23.00
347.68        23.00
348.22        23.00
348.77        23.00
349.31        23.00
349.71        23.50
350.25        23.00
350.79        23.50
351.19        23.50
351.74        23.50
352.28        23.50
352.68        23.50
353.24        23.50
353.78        23.50
354.18        23.50
354.72        23.50
355.26        23.50
355.81        23.50
356.20        23.50
356.75        23.50
357.29        23.50
357.70        23.50
358.24        23.50
358.79        23.50
359.18        23.50
359.73        23.50
360.26        23.50
360.68        23.50
361.22        23.50
361.76        23.50
362.16        23.50
362.71        23.50
363.25        23.50
363.79        23.50
364.20        23.50
364.74        23.50
365.28        23.50
365.68        23.50
366.23        23.50
366.77        23.50
367.17        24.00
367.71        24.00
368.25        24.00
368.65        24.00
369.20        24.00
369.74        24.00
370.29        24.00
370.69        24.00
371.24        24.00
371.77        24.00
372.19        24.00
372.72        24.00
373.26        24.00
373.66        24.00
374.21        24.00
374.75        24.00
375.15        24.00
375.70        24.00
376.24        24.00
376.78        24.00
377.18        24.00
377.72        24.00
378.27        24.00
378.69        24.00
379.23        24.00
379.77        24.00
380.17        24.00
380.71        24.00
381.25        24.00
381.66        24.00
382.20        24.00
382.74        24.50
383.28        24.50
383.68        24.50
384.23        24.50
384.77        24.50
385.17        24.50
385.72        24.50
386.26        24.50
386.67        24.50
387.21        24.50
387.75        24.50
388.17        24.50
388.70        24.50
389.25        24.50
389.79        24.50
390.18        24.50
390.73        24.50
391.28        24.50
391.68        24.50
392.22        24.50
392.76        24.50
393.17        24.50
393.71        24.50
394.26        24.50
394.66        24.50
395.20        24.50
395.74        24.50
396.28        24.50
396.69        24.50
397.23        24.50
397.77        24.50
398.17        24.50
398.72        25.00
399.27        25.00
399.67        25.00
400.21        25.00
400.75        25.00
401.16        25.00
401.70        25.00
402.24        25.00
402.78        25.00
403.18        25.00
403.72        25.00
404.27        25.00
404.68        25.00
405.22        25.00
405.77        25.00
406.17        25.00
406.71        25.00
407.26        25.00
407.65        25.00
408.20        25.00
408.74        25.00
409.28        25.00
409.68        25.00
410.23        25.00
410.77        25.00
411.18        25.00
411.73        25.00
412.27        25.00
412.66        25.00
413.20        25.50
413.75        25.50
414.15        25.50
414.69        25.50
415.23        25.50
415.64        25.50
416.18        25.50
416.73        25.50
417.26        25.50
417.68        25.50
418.22        25.50
418.76        25.50
419.17        25.50
419.69        25.50
420.24        25.50
420.66        25.50
421.20        25.50
421.75        25.50
422.14        25.50
422.69        25.50
423.23        25.50
423.77        25.50
424.18        25.50
424.73        25.50
425.26        25.50
425.66        25.50
426.21        25.50
426.75        26.00
427.15        26.00
427.70        26.00
428.23        26.00
428.63        26.00
429.18        26.00
429.73        26.00
430.27        26.00
430.67        26.00
431.21        26.00
431.76        26.00
432.16        26.00
432.71        26.00
433.24        26.00
433.66        26.00
434.20        26.00
434.74        26.00
435.14        26.00
435.68        26.00
436.23        26.00
436.77        26.00
437.17        26.00
437.71        26.00
438.25        26.00
438.67        26.00
439.20        26.00
439.75        26.50
440.15        26.00
440.70        26.50
441.24        26.50
441.64        26.50
442.19        26.50
442.73        26.50
443.27        26.50
443.67        26.50
444.21        26.50
444.75        26.50
445.17        26.50
445.71        26.50
446.25        26.50
446.65        26.50
447.19        26.50
447.73        26.50
448.13        26.50
448.68        26.50
449.22        26.50
449.76        26.50
450.16        26.50
450.71        26.50
451.25        26.50
451.65        27.00
452.20        27.00
452.75        27.00
453.15        27.00
453.69        27.00
454.24        27.00
454.64        27.00
455.18        27.00
455.72        27.00
456.27        27.00
456.66        27.00
457.21        27.00
457.76        27.00
458.16        27.00
458.70        27.00
459.25        27.00
459.64        27.00
460.18        27.00
460.73        27.00
461.13        27.00
461.67        27.00
462.21        27.00
462.76        27.00
463.17        27.50
463.72        27.50
464.25        27.50
464.65        27.50
465.20        27.50
465.75        27.50
466.15        27.50
466.69        27.50
467.23        27.50
467.63        27.50
468.18        27.50
468.72        27.50
469.27        27.50
469.67        27.50
470.21        27.50
470.76        27.50
471.16        27.50
471.70        27.50
472.24        27.50
472.64        27.50
473.18        27.50
473.72        27.50
474.14        28.00
474.67        28.00
475.21        28.00
475.63        28.00
476.18        28.00
476.70        28.00
477.25        28.00
477.65        28.00
478.19        28.00
478.74        28.00
479.14        28.00
479.68        28.00
480.23        28.00
480.63        28.00
481.17        28.00
481.72        28.00
482.12        28.00
482.67        28.00
483.21        28.00
483.75        28.00
484.15        28.00
484.70        28.00
485.24        28.50
485.64        28.00
486.19        28.50
486.73        28.50
487.13        28.50
487.68        28.50
488.22        28.50
488.62        28.50
489.17        28.50
489.70        28.50
490.24        28.50
490.67        28.50
491.19        28.50
491.73        28.50
492.15        28.50
492.69        28.50
493.23        28.50
493.63        28.50
494.17        28.50
494.73        28.50
495.13        28.50
495.67        28.50
496.21        28.50
496.75        29.00
497.15        29.00
497.69        29.00
498.24        29.00
498.64        29.00
499.18        29.00
499.73        29.00
500.13        29.00
500.68        29.00
501.21        29.00
501.63        29.00
502.17        29.00
502.71        29.00
503.25        29.00
503.65        29.00
504.19        29.00
504.75        29.00
505.14        29.00
505.68        29.00
506.23        29.00
506.64        29.00
507.18        29.50
507.72        29.50
508.12        29.50
508.67        29.50
509.22        29.50
509.75        29.50
510.15        29.50
510.70        29.50
511.23        29.50
511.64        29.50
512.18        29.50
512.73        29.50
513.14        29.50
513.68        29.50
514.21        29.50
514.62        29.50
515.17        29.50
515.71        29.50
516.25        29.50
516.65        29.50
517.19        29.50
517.73        29.50
518.14        30.00
518.68        30.00
519.22        30.00
519.64        30.00
520.18        30.00
520.71        30.00
521.13        30.00
521.66        30.00
522.21        30.00
522.75        30.00
523.16        30.00
523.69        30.00
524.23        30.00
524.63        30.00
525.18        30.00
525.73        30.00
526.12        30.00
526.67        30.00
527.21        30.00
527.62        30.00
528.17        30.50
528.70        30.50
529.12        30.50
529.65        30.50
530.20        30.50
530.74        30.50
531.14        30.50
531.68        30.50
532.23        30.50
532.63        30.50
533.18        30.50
533.72        30.50
534.12        30.50
534.65        30.50
535.20        30.50
535.62        30.50
536.16        30.50
536.70        30.50
537.24        30.50
537.64        31.00
538.19        31.00
538.73        31.00
539.13        31.00
539.68        31.00
540.22        31.00
540.62        31.00
541.16        31.00
541.70        31.00
542.11        31.00
542.65        31.00
543.20        31.00
543.74        31.00
544.14        31.00
544.68        31.00
545.22        31.00
545.62        31.00
546.16        31.00
546.71        31.00
547.11        31.00
547.66        31.00
548.20        31.50
548.60        31.50
549.15        31.50
549.69        31.50
550.23        31.50
550.64        31.50
551.19        31.50
551.71        31.50
552.13        31.50
552.68        31.50
553.21        31.50
553.61        31.50
554.16        31.50
554.70        31.50
555.10        31.50
555.65        31.50
556.19        31.50
556.73        31.50
557.15        32.00
557.69        32.00
558.23        32.00
558.63        32.00
559.17        32.00
559.72        32.00
560.11        32.00
560.66        32.00
561.20        32.00
561.60        32.00
562.14        32.00
562.68        32.00
563.22        32.00
563.63        32.00
564.17        32.00
564.72        32.00
565.12        32.00
565.66        32.00
566.21        32.50
566.61        32.50
567.15        32.50
567.70        32.50
568.10        32.50
568.65        32.50
569.18        32.50
569.73        32.50
570.13        32.50
570.67        32.50
571.22        32.50
571.62        32.50
572.16        32.50
572.71        32.50
573.13        32.50
573.65        32.50
574.19        32.50
574.59        32.50
575.14        33.00
575.68        33.00
576.23        33.00
576.62        33.00
577.17        33.00
577.71        33.00
578.13        33.00
578.67        33.00
579.21        33.00
579.61        33.00
580.16        33.00
580.70        33.00
581.10        33.00
581.64        33.00
582.18        33.00
582.73        33.00
583.12        33.00
583.67        33.00
584.22        33.50
584.62        33.50
585.16        33.50
585.70        33.50
586.11        33.50
586.65        33.50
587.20        33.50
587.60        33.50
588.14        33.50
588.69        33.50
589.09        33.50
589.63        33.50
590.18        33.50
590.72        33.50
591.13        33.50
591.67        33.50
592.21        33.50
592.61        34.00
593.16        34.00
593.70        34.00
594.10        34.00
594.65        34.00
595.19        34.00
595.59        34.00
596.14        34.00
596.68        34.00
597.21        34.00
597.63        34.00
598.17        34.00
598.71        34.00
599.11        34.00
599.74        34.00
600.19        34.00
600.59        34.00
601.13        34.00
601.69        34.50
602.09        34.50
602.63        34.50
603.17        34.50
603.71        34.50
604.12        34.50
604.67        34.50
605.21        34.50
605.62        34.50
606.16        34.50
606.70        34.50
607.09        34.50
607.65        34.50
608.19        34.50
608.59        34.50
609.13        34.50
609.67        34.50
610.22        34.50
610.62        35.00
611.16        35.00
611.70        35.00
612.11        35.00
612.65        35.00
613.19        35.00
613.61        35.00
614.14        35.00
614.68        35.00
615.08        35.00
615.63        35.00
616.17        35.00
616.71        35.00
617.12        35.00
617.66        35.00
618.21        35.00
618.61        35.50
619.14        35.50
619.68        35.50
620.11        35.50
620.64        35.50
621.19        35.50
621.60        35.50
622.12        35.50
622.67        35.50
623.22        35.50
623.62        35.50
624.15        35.50
624.69        35.50
625.12        35.50
625.64        35.50
626.19        35.50
626.60        35.50
627.14        36.00
627.68        36.00
628.08        36.00
628.62        36.00
629.16        36.00
629.71        36.00
630.11        36.00
630.66        36.00
631.20        36.00
631.60        36.00
632.15        36.00
632.70        36.00
633.10        36.00
633.64        36.00
634.17        36.00
634.59        36.00
635.13        36.00
635.67        36.50
636.22        36.50
636.62        36.50
637.16        36.50
637.71        36.50
638.11        36.50
638.65        36.50
639.20        36.50
639.60        36.50
640.14        36.50
640.68        36.50
641.09        36.50
641.63        36.50
642.17        36.50
642.71        36.50
643.11        36.50
643.66        37.00
644.21        37.00
644.60        37.00
645.14        37.00
645.69        37.00
646.10        37.00
646.64        37.00
647.17        37.00
647.60        37.00
648.14        37.00
648.66        37.00
649.06        37.00
649.62        37.00
650.17        37.00
650.70        37.00
651.10        37.50
651.65        37.50
652.20        37.50
652.59        37.50
653.15        37.50
653.67        37.50
654.09        37.50
654.64        37.50
655.17        37.50
655.57        37.50
656.12        37.50
656.66        37.50
657.21        37.50
657.61        37.50
658.15        37.50
658.69        37.50
659.09        37.50
659.63        38.00
660.18        38.00
660.58        38.00
661.13        38.00
661.67        38.00
662.07        38.00
662.61        38.00
663.14        38.00
663.70        38.00
664.10        38.00
664.64        38.00
665.19        38.00
665.60        38.00
666.14        38.00
666.68        38.00
667.08        38.00
667.63        38.50
668.18        38.50
668.57        38.50
669.12        38.50
669.66        38.50
670.20        38.50
670.60        38.50
671.14        38.50
671.69        38.50
672.09        38.50
672.63        38.50
673.17        38.50
673.57        38.50
674.12        38.50
674.67        38.50
675.07        38.50
675.61        38.50
676.15        39.00
676.70        39.00
677.10        39.00
677.64        39.00
678.18        39.00
678.60        39.00
679.14        39.00
679.67        39.00
680.08        39.00
680.62        39.00
681.16        39.00
681.57        39.00
682.11        39.00
682.64        39.00
683.19        39.50
683.59        39.00
684.14        39.00
684.69        39.50
685.09        39.50
685.64        39.50
686.18        39.50
686.58        39.50
687.12        39.50
687.67        39.50
688.07        39.50
688.61        39.50
689.14        39.50
689.69        39.50
690.09        39.50
690.64        39.50
691.18        40.00
691.58        39.50
692.14        40.00
692.67        40.00
693.07        40.00
693.63        40.00
694.17        40.00
694.58        40.00
695.11        40.00
695.66        40.00
696.19        40.00
696.60        40.00
697.14        40.00
697.68        40.00
698.09        40.00
698.63        40.00
699.17        40.00
699.57        40.50
700.11        40.50
700.66        40.50
701.07        40.50
701.61        40.50
702.15        40.50
702.57        40.50
703.10        40.50
703.65        40.50
704.18        40.50
704.58        40.50
705.12        40.50
705.66        40.50
706.09        40.50
706.61        40.50
707.17        40.50
707.57        40.50
708.11        41.00
708.66        41.00
709.05        41.00
709.61        41.00
710.14        41.00
710.68        41.00
711.08        41.00
711.62        41.00
712.16        41.00
712.58        41.00
713.11        41.00
713.66        41.50
714.07        41.50
714.60        41.50
715.16        41.50
715.56        41.50
716.11        41.50
716.65        41.50
717.19        41.50
717.59        41.50
718.14        41.50
718.68        41.50
719.08        41.50
719.62        41.50
720.17        41.50
720.56        42.00
721.10        42.00
721.65        42.00
722.05        42.00
722.60        42.00
723.14        42.00
723.68        42.00
724.10        42.00
724.62        42.00
725.17        42.00
725.57        42.00
726.13        42.00
726.65        42.00
727.06        42.50
727.61        42.50
728.15        42.50
728.55        42.50
729.09        42.50
729.65        42.50
730.17        42.50
730.60        42.50
731.12        42.50
731.67        42.50
732.07        42.50
732.61        42.50
733.15        42.50
733.56        42.50
734.11        43.00
734.65        43.00
735.05        43.00
735.59        43.00
736.13        43.00
736.68        43.00
737.09        43.00
737.62        43.00
738.17        43.00
738.57        43.00
739.11        43.00
739.66        43.00
740.06        43.00
740.60        43.00
741.14        43.50
741.55        43.00
742.09        43.50
742.63        43.50
743.18        43.50
743.59        43.50
744.13        43.50
744.67        43.50
745.07        43.50
745.62        43.50
746.14        43.50
746.57        43.50
747.11        43.50
747.64        43.50
748.04        43.50
748.59        44.00
749.13        44.00
749.68        44.00
750.08        44.00
750.63        44.00
751.17        44.00
751.57        44.00
752.12        44.00
752.65        44.00
753.05        44.00
753.61        44.00
754.14        44.00
754.54        44.50
755.10        44.00
755.64        44.50
756.17        44.50
756.59        44.50
757.12        44.50
757.67        44.50
758.07        44.50
758.61        44.50
759.15        44.50
759.57        44.50
760.10        44.50
760.65        44.50
761.05        44.50
761.60        44.50
762.14        44.50
762.54        45.00
763.08        45.00
763.63        45.00
764.15        45.00
764.58        45.00
765.12        45.00
765.64        45.00
766.06        45.00
766.60        45.00
767.14        45.00
767.55        45.00
768.10        45.00
768.63        45.50
769.05        45.50
769.59        45.50
770.13        45.50
770.67        45.50
771.07        45.50
771.61        45.50
772.16        45.50
772.56        45.50
773.11        45.50
773.65        45.50
774.04        45.50
774.59        45.50
775.14        45.50
775.53        45.50
776.08        46.00
776.63        46.00
777.17        46.00
777.57        46.00
778.11        46.00
778.65        46.00
779.05        46.00
779.59        46.00
780.13        46.00
780.55        46.00
781.10        46.00
781.64        46.00
782.04        46.00
782.58        46.00
783.12        46.00
783.66        46.50
784.06        46.00
784.61        46.50
785.15        46.50
785.55        46.50
786.10        46.50
786.65        46.50
787.04        46.50
787.59        46.50
788.13        46.50
788.54        46.50
789.08        46.50
789.63        46.50
790.16        46.50
790.56        46.50
791.11        46.50
791.65        46.50
792.05        47.00
792.60        47.00
793.14        47.00
793.55        47.00
794.08        47.00
794.62        47.00
795.05        47.00
795.57        47.00
796.11        47.00
796.67        47.00
797.06        47.00
797.61        47.00
798.15        47.50
798.55        47.50
799.09        47.50
799.65        47.50
800.04        47.50
800.58        47.50
801.12        47.50
801.53        47.50
802.07        47.50
802.62        47.50
803.16        47.50
803.57        47.50
804.11        47.50
804.65        47.50
805.06        48.00
805.59        48.00
806.15        48.00
806.54        48.00
807.09        48.00
807.62        48.00
808.02        48.00
808.57        48.00
809.12        48.00
809.65        48.00
810.07        48.00
810.62        48.00
811.14        48.00
811.55        48.50
812.09        48.50
812.63        48.50
813.05        48.50
813.59        48.50
814.12        48.50
814.54        48.50
815.08        48.50
815.61        48.50
816.15        48.50
816.56        48.50
817.10        48.50
817.65        48.50
818.05        48.50
818.58        49.00
819.14        49.00
819.54        49.00
820.09        49.00
820.63        49.00
821.03        49.00
821.57        49.00
822.11        49.00
822.66        49.00
823.06        49.00
823.60        49.00
824.14        49.00
824.56        49.50
825.10        49.50
825.63        49.50
826.05        49.50
826.59        49.50
827.13        49.50
827.52        49.50
828.06        49.50
828.60        49.50
829.15        49.50
829.55        49.50
830.10        49.50
830.65        49.50
831.05        49.50
831.60        49.50
832.13        50.00
832.55        50.00
833.07        50.00
833.62        50.00
834.03        50.00
834.58        50.00
835.10        50.00
835.51        50.00
836.05        50.00
836.60        50.00
837.15        50.00
837.54        50.00
838.09        50.00
838.64        50.50
839.04        50.50
839.59        50.50
840.11        50.50
840.53        50.50
841.07        50.50
841.61        50.50
842.01        50.50
842.55        50.50
843.11        50.50
843.65        50.50
844.06        50.50
844.58        50.50
845.12        50.50
845.54        50.50
846.08        51.00
846.62        51.00
847.02        51.00
847.56        51.00
848.10        51.00
848.52        51.00
849.07        51.00
849.60        51.00
850.15        51.00
850.54        51.00
851.08        51.00
851.63        51.00
852.03        51.00
852.58        51.50
853.12        51.50
853.53        51.50
854.07        51.50
854.60        51.50
855.02        51.50
855.56        51.50
856.10        51.50
856.63        51.50
857.03        51.50
857.59        51.50
858.13        51.50
858.53        51.50
859.07        52.00
859.62        52.00
860.03        52.00
860.57        52.00
861.11        52.00
861.52        52.00
862.05        52.00
862.59        52.00
863.14        52.00
863.53        52.00
864.08        52.00
864.62        52.00
865.03        52.00
865.57        52.50
866.10        52.50
866.52        52.50
867.05        52.50
867.59        52.50
868.14        52.50
868.54        52.50
869.08        52.50
869.62        52.50
870.02        52.50
870.57        52.50
871.10        52.50
871.52        52.50
872.06        53.00
872.60        53.00
873.14        53.00
873.54        53.00
874.08        53.00
874.63        53.00
875.03        53.00
875.58        53.00
876.10        53.00
876.52        53.00
877.05        53.00
877.59        53.00
878.13        53.50
878.54        53.50
879.07        53.50
879.63        53.50
880.02        53.50
880.56        53.50
881.10        53.50
881.51        53.50
882.05        53.50
882.59        53.50
883.12        53.50
883.52        53.50
884.08        53.50
884.62        54.00
885.03        54.00
885.57        54.00
886.10        54.00
886.50        54.00
887.04        54.00
887.58        54.00
888.12        54.00
888.52        54.00
889.07        54.00
889.61        54.00
890.03        54.00
890.55        54.00
891.10        54.00
891.52        54.50
892.04        54.50
892.59        54.50
893.13        54.50
893.53        54.50
894.07        54.50
894.61        54.50
895.02        54.50
895.56        54.50
896.10        54.50
896.50        54.50
897.04        54.50
897.59        55.00
898.12        55.00
898.52        55.00
899.07        55.00
899.61        55.00
900.01        55.00
900.55        55.00
901.10        55.00
901.50        55.00
902.04        55.00
902.59        55.00
903.13        55.00
903.52        55.00
904.06        55.00
904.59        55.00
905.00        55.00
905.56        55.50
906.09        55.50
906.50        55.50
907.04        55.50
907.58        55.50
908.13        55.50
908.52        55.50
909.06        55.50
909.61        55.50
910.01        55.50
910.54        55.50
911.08        55.50
911.63        55.50
912.03        55.50
912.58        56.00
913.12        56.00
913.52        56.00
914.06        56.00
914.60        56.00
915.01        56.00
915.54        56.00
916.08        56.00
916.63        56.00
917.03        56.00
917.57        56.00
918.12        56.00
918.51        56.00
919.06        56.50
919.59        56.50
920.01        56.50
920.55        56.50
921.08        56.50
921.62        56.50
922.03        56.50
922.56        56.50
923.10        56.50
923.52        56.50
924.06        56.50
924.60        56.50
924.99        56.50
925.53        56.50
926.08        57.00
926.62        57.00
927.03        57.00
927.56        57.00
928.10        57.00
928.52        57.00
929.04        57.00
929.59        57.00
929.99        57.00
930.53        57.00
931.07        57.00
931.62        57.00
932.02        57.00
932.56        57.00
933.10        57.00
933.51        57.50
934.06        57.50
934.59        57.50
935.00        57.50
935.54        57.50
936.08        57.50
936.62        57.50
937.01        57.50
937.56        57.50
938.10        57.50
938.50        57.50
939.04        57.50
939.59        57.50
939.98        57.50
940.53        58.00
941.07        58.00
941.61        58.00
942.01        58.00
942.55        58.00
943.11        58.00
943.51        58.00
944.04        58.00
944.59        58.00
944.98        58.00
945.52        58.00
946.07        58.00
946.60        58.00
947.01        58.00
947.55        58.50
948.10        58.50
948.50        58.50
949.04        58.50
949.58        58.50
949.98        58.50
950.53        58.50
951.06        58.50
951.61        58.50
952.01        58.50
952.54        58.50
953.10        58.50
953.49        58.50
954.05        58.50
954.57        59.00
955.12        59.00
955.53        59.00
956.06        59.00
956.61        59.00
957.01        59.00
957.54        59.00
958.08        59.00
958.49        59.00
959.03        59.00
959.58        59.00
960.11        59.00
960.51        59.00
961.06        59.00
961.59        59.50
962.01        59.50
962.55        59.50
963.09        59.50
963.49        59.50
964.02        59.50
964.57        59.50
965.12        59.50
965.51        59.50
966.05        59.50
966.59        59.50
966.99        59.50
967.53        59.50
968.07        59.50
968.50        59.50
969.02        60.00
969.56        60.00
970.11        60.00
970.51        60.00
971.05        60.00
971.59        60.00
971.99        60.00
972.54        60.00
973.08        60.00
973.49        60.00
974.03        60.00
974.55        60.00
975.09        60.00
975.51        60.00
976.06        60.00
976.59        60.50
976.99        60.50
977.53        60.50
978.08        60.50
978.48        60.50
979.02        60.50
979.55        60.50
980.11        60.50
980.50        60.50
981.04        60.50
981.57        60.50
981.99        60.50
982.52        60.50
983.07        60.50
983.48        61.00
984.01        61.00
984.55        61.00
985.10        61.00
985.51        61.00
986.04        61.00
986.57        61.00
986.99        61.00
987.52        61.00
988.06        61.00
988.48        61.00
989.01        61.00
989.55        61.00
990.09        61.00
990.51        61.00
991.05        61.50
991.58        61.50
991.98        61.50
992.53        61.50
993.06        61.50
993.48        61.50
994.01        61.50
994.55        61.50
995.09        61.50
995.49        61.50
996.04        61.50
996.58        61.50
996.97        61.50
997.52        61.50
998.07        61.50
998.47        62.00
999.02        62.00
999.56        62.00
1000.09        62.00
1000.50        62.00
1001.04        62.00
1001.57        62.00
1001.99        62.00
1002.53        62.00
1003.06        62.00
1003.60        62.00
1004.00        62.00
1004.54        62.00
1005.09        62.00
1005.48        62.00
1006.03        62.50
1006.57        62.50
1006.97        62.50
1007.52        62.50
1008.06        62.50
1008.59        62.50
1009.01        62.50
1009.55        62.50
1010.09        62.50
1010.48        62.50
1011.04        62.50
1011.58        62.50
1011.98        62.50
1012.52        62.50
1013.05        62.50
1013.60        63.00
1013.99        62.50
1014.54        63.00
1015.08        63.00
1015.48        63.00
1016.03        63.00
1016.57        63.00
1016.97        63.00
1017.52        63.00
1018.06        63.00
1018.58        63.00
1018.99        63.00
1019.54        63.00
1020.08        63.00
1020.48        63.00
1021.01        63.50
1021.56        63.50
1021.96        63.50
1022.51        63.50
1023.05        63.50
1023.59        63.50
1023.99        63.50
1024.52        63.50
1025.07        63.50
1025.47        63.50
1026.02        63.50
1026.55        63.50
1026.97        63.50
1027.51        63.50
1028.05        63.50
1028.57        63.50
1028.99        63.50
1029.54        64.00
1030.07        64.00
1030.47        64.00
1031.01        64.00
1031.56        64.00
1031.96        64.00
1032.50        64.00
1033.04        64.00
1033.59        64.00
1033.99        64.00
1034.53        64.00
1035.07        64.00
1035.47        64.00
1036.01        64.00
1036.56        64.00
1036.96        64.50
1037.51        64.50
1038.04        64.50
1038.57        64.50
1038.98        64.50
1039.53        64.50
1040.07        64.50
1040.46        64.50
1041.00        64.50
1041.56        64.50
1041.96        64.50
1042.50        64.50
1043.04        64.50
1043.58        64.50
1043.98        64.50
1044.53        65.00
1045.06        65.00
1045.46        65.00
1046.01        65.00
1046.54        65.00
1047.09        65.00
1047.50        65.00
1048.03        65.00
1048.57        65.00
1048.97        65.00
1049.52        65.00
1050.06        65.00
1050.46        65.00
1051.01        65.00
1051.55        65.00
1052.09        65.00
1052.49        65.00
1053.04        65.00
1053.56        65.50
1053.98        65.50
1054.52        65.50
1055.04        65.50
1055.46        65.50
1056.00        65.50
1056.55        65.50
1057.09        65.50
1057.49        65.50
1058.04        65.50
1058.58        65.50
1058.97        65.50
1059.52        65.50
1060.06        65.50
1060.45        65.50
1060.99        65.50
1061.53        65.50
1062.07        65.50
1062.49        66.00
1063.03        66.00
1063.57        66.00
1063.97        66.00
1064.51        66.00
1065.05        66.00
1065.45        66.00
1066.00        66.00
1066.54        66.00
1067.08        66.00
1067.48        66.00
1068.03        66.00
1068.55        66.00
1068.97        66.00
1069.50        66.00
1070.04        66.00
1070.45        66.00
1070.99        65.50
1071.53        65.50
1072.08        65.50
1072.48        66.00
1073.02        65.50
1073.55        65.50
1073.97        66.00
1074.50        66.00
1075.05        66.00
1075.45        66.00
1075.99        66.00
1076.53        66.00
1077.08        66.00
1077.48        66.00
1078.02        66.00
1078.56        66.00
1078.96        66.50
1079.51        66.50
1080.04        66.50
1080.46        66.50
1080.98        66.50
1081.52        66.50
1082.07        66.50
1082.47        66.50
1083.01        66.50
1083.55        67.00
1083.95        67.00
1084.50        67.00
1085.04        67.00
1085.44        67.00
1085.98        67.00
1086.52        67.00
1087.07        67.00
1087.47        67.50
1088.02        67.50
1088.56        67.50
1088.96        67.50
1089.50        67.50
1090.03        67.50
1090.43        67.50
1090.98        67.50
1091.53        67.50
1092.07        68.00
1092.47        68.00
1093.01        68.00
1093.55        68.00
1093.95        68.00
1094.49        68.00
1095.03        68.00
1095.58        68.00
1095.98        68.00
1096.52        68.50
1097.06        68.50
1097.46        68.50
1098.01        68.50
1098.55        68.50
1098.95        68.50
1099.49        68.50
1100.04        68.50
1100.58        69.00
1100.98        69.00
1101.52        69.00
1102.07        69.00
1102.46        69.00
1103.01        69.00
1103.55        69.00
1103.94        69.00
1104.49        69.00
1105.03        69.50
1105.56        69.50
1105.98        69.50
1106.51        69.50
1107.06        69.50
1107.46        69.50
1108.00        69.50
1108.55        69.50
1108.94        69.50
1109.48        70.00
1110.03        70.00
1110.55        70.00
1110.97        70.00
1111.50        70.00
1112.05        70.00
1112.47        70.00
1112.99        70.00
1113.53        70.00
1113.94        70.00
1114.49        70.00
1115.03        70.00
1115.55        70.00
1115.97        70.00
1116.52        70.00
1117.04        70.50
1117.45        70.50
1118.00        70.50
1118.54        70.50
1118.93        70.50
1119.48        70.50
1120.02        70.50
1120.56        70.50
1120.96        70.50
1121.50        70.50
1122.04        70.50
1122.44        70.50
1122.99        70.50
1123.53        70.50
1123.93        70.50
1124.47        70.50
1125.01        70.50
1125.56        71.00
1125.96        71.00
1126.51        71.00
1127.05        71.00
1127.45        71.00
1127.98        71.00
1128.53        71.00
1128.92        71.00
1129.47        71.00
1130.01        71.00
1130.56        71.00
1130.95        71.00
1131.49        71.00
1132.04        71.00
1132.44        71.00
1132.98        71.00
1133.53        71.50
1133.93        71.50
1134.47        71.50
1135.00        71.50
1135.54        71.50
1135.94        71.50
1136.48        71.50
1137.03        71.50
1137.45        71.50
1137.99        71.50
1138.53        71.50
1138.93        71.50
1139.47        71.50
1140.01        71.50
1140.55        71.50
1140.95        72.00
1141.49        72.00
1142.04        72.00
1142.44        72.00
1142.97        72.00
1143.52        72.00
1144.06        72.00
1144.46        72.00
1145.01        72.00
1145.55        72.00
1145.95        72.00
1146.49        72.00
1147.02        72.00
1147.44        72.00
1147.98        72.00
1148.51        72.50
1149.06        72.50
1149.46        72.50
1150.00        72.50
1150.55        72.50
1150.95        72.50
1151.49        72.50
1152.03        72.50
1152.43        72.50
1152.97        72.50
1153.51        72.50
1154.05        72.50
1154.45        72.50
1155.00        72.50
1155.55        72.50
1155.94        72.50
1156.48        72.50
1157.01        73.00
1157.42        73.00
1157.96        73.00
1158.50        73.00
1159.04        73.00
1159.43        73.00
1159.97        73.00
1160.52        73.00
1160.92        73.00
1161.46        73.00
1162.01        73.00
1162.54        73.00
1162.95        73.00
1163.49        73.00
1164.02        73.50
1164.43        73.50
1164.97        73.50
1165.51        73.50
1166.04        73.50
1166.45        73.50
1166.97        73.50
1167.53        73.50
1167.92        73.50
1168.47        73.50
1169.01        73.50
1169.55        73.50
1169.95        73.50
1170.49        73.50
1171.02        74.00
1171.43        74.00
1171.96        74.00
1172.51        74.00
1173.04        74.00
1173.45        74.00
1173.99        74.00
1174.52        74.00
1174.93        74.00
1175.46        74.00
1176.01        74.00
1176.54        74.00
1176.95        74.00
1177.48        74.00
1178.03        74.00
1178.43        74.00
1178.97        74.00
1179.51        74.00
1179.91        74.00
1180.45        74.50
1181.00        74.50
1181.53        74.50
1181.94        74.50
1182.48        74.50
1183.00        74.50
1183.42        74.50
1183.95        74.50
1184.49        74.50
1185.02        74.50
1185.43        74.50
1185.96        74.50
1186.52        74.50
1186.92        74.50
1187.46        74.50
1187.99        74.50
1188.54        74.50
1188.93        74.50
1189.48        74.50
1190.02        75.00
1190.42        75.00
1190.96        75.00
1191.50        75.00
1192.03        75.00
1192.44        75.00
1192.97        75.00
1193.51        75.00
1193.91        75.00
1194.45        75.00
1194.99        75.00
1195.54        75.00
1195.94        75.00
1196.47        75.00
1197.01        75.00
1197.41        75.00
1197.96        75.00
1198.50        75.00
1199.04        75.00
1199.44        75.50
1199.97        75.50
1200.52        75.50
1200.91        75.50
1201.46        75.50
1202.00        75.50
1202.54        75.50
1202.94        75.50
1203.47        75.50
1204.02        75.50
1204.42        75.50
1204.96        75.50
1205.51        75.50
1206.03        75.50
1206.43        75.50
1206.98        75.50
1207.52        75.50
1207.92        75.50
1208.47        75.50
1209.01        75.50
1209.41        76.00
1209.95        76.00
1210.48        76.00
1211.03        76.00
1211.43        76.00
1211.97        76.00
1212.51        76.00
1212.90        76.00
1213.45        76.00
1213.97        76.00
1214.51        76.00
1214.91        76.00
1215.46        76.00
1216.01        76.00
1216.40        76.00
1216.95        76.00
1217.47        76.00
1218.02        76.00
1218.42        76.00
1218.97        76.00
1219.50        76.50
1219.90        76.00
1220.44        76.00
1220.98        76.50
1221.53        76.50
1221.93        76.50
1222.46        76.50
1223.00        76.50
1223.42        76.50
1223.94        76.50
1224.49        76.50
1225.03        76.50
1225.43        76.50
1225.98        76.50
1226.52        76.50
1226.92        76.50
1227.44        76.50
1227.98        76.50
1228.53        76.50
1228.93        76.50
1229.46        76.50
1230.00        76.50
1230.40        76.50
1230.94        77.00
1231.49        77.00
1232.03        77.00
1232.43        77.00
1232.96        77.00
1233.50        77.00
1233.90        77.00
1234.45        77.00
1234.99        77.00
1235.54        77.00
1235.93        77.00
1236.48        77.00
1237.00        77.00
1237.40        77.00
1237.95        77.00
1238.49        77.00
1238.89        77.00
1239.43        77.00
1239.98        77.00
1240.52        77.00
1240.91        77.00
1241.46        77.00
1241.99        77.00
1242.40        77.00
1242.94        77.50
1243.48        77.50
1244.02        77.50
1244.42        77.50
1244.95        77.50
1245.49        77.50
1245.89        77.50
1246.44        77.50
1246.96        77.50
1247.52        77.50
1247.91        77.50
1248.45        77.50
1249.01        77.50
1249.40        77.50
1249.94        77.50
1250.48        77.50
1251.02        77.50
1251.41        77.50
1251.95        77.50
1252.49        77.50
1252.91        77.50
1253.45        77.50
1253.98        77.50
1254.53        78.00
1254.92        78.00
1255.47        78.00
1256.01        78.00
1256.41        78.00
1256.94        78.00
1257.48        78.00
1258.01        78.00
1258.43        78.00
1258.97        78.00
1259.50        78.00
1259.90        78.00
1260.45        78.00
1260.98        78.00
1261.51        78.00
1261.92        78.00
1262.46        78.00
1263.00        78.00
1263.40        78.00
1263.95        78.00
1264.48        78.00
1265.02        78.00
1265.42        78.00
1265.97        78.00
1266.51        78.00
1266.90        78.00
1267.44        78.50
1267.98        78.00
1268.38        78.50
1268.92        78.50
1269.46        78.50
1270.00        78.50
1270.40        78.50
1270.95        78.50
1271.48        78.50
1271.89        78.50
1272.42        78.50
1272.96        78.50
1273.51        78.50
1273.91        78.50
1274.45        78.50
1274.98        78.50
1275.38        78.50
1275.92        78.50
1276.46        78.50
1277.01        78.50
1277.41        78.50
1277.95        78.50
1278.49        78.50
1278.89        78.50
1279.43        78.50
1279.98        78.50
1280.51        79.00
1280.90        79.00
1281.45        79.00
1281.99        79.00
1282.39        79.00
1282.93        79.00
1283.46        79.00
1284.00        79.00
1284.42        79.00
1284.95        79.00
1285.48        79.00
1285.90        79.00
1286.43        79.00
1286.97        79.00
1287.50        79.00
1287.92        79.00
1288.46        79.00
1289.00        79.00
1289.39        79.00
1289.94        79.00
1290.48        79.00
1291.00        79.00
1291.42        79.00
1291.96        79.00
1292.50        79.00
1292.88        79.00
1293.44        79.00
1293.97        79.00
1294.52        79.00
1294.91        79.00
1295.46        79.00
1295.99        79.00
1296.40        79.00
1296.94        79.50
1297.47        79.50
1297.88        79.50
1298.42        79.50
1298.96        79.50
1299.50        79.50
1299.90        79.50
1300.44        79.50
1300.98        79.50
1301.39        79.50
1301.91        79.50
1302.45        79.50
1303.00        79.50
1303.40        79.50
1303.93        79.50
1304.48        79.50
1304.88        79.50
1305.42        79.50
1305.95        79.50
1306.49        79.50
1306.90        79.50
1307.45        79.50
1307.98        79.50
1308.38        79.50
1308.91        79.50
1309.46        79.50
1310.00        79.50
1310.40        79.50
1310.95        80.00
1311.48        79.50
1311.88        79.50
1312.41        80.00
1312.95        80.00
1313.50        80.00
1313.90        79.50
1314.45        80.00
1314.98        80.00
1315.38        80.00
1315.91        80.00
1316.47        80.00
1317.00        80.00
1317.41        80.00
1317.95        80.00
1318.48        80.00
1318.88        80.00
1319.42        80.00
1319.96        80.00
1320.50        80.00
1320.90        80.00
1321.45        80.00
1321.98        80.00
1322.37        80.00
1322.92        80.00
1323.47        80.00
1324.00        80.00
1324.42        80.00
1324.94        80.00
1325.49        80.00
1325.89        80.00
1326.43        80.00
1326.97        80.00
1327.37        80.00
1327.90        80.00
1328.45        80.00
1328.97        80.50
1329.38        80.50
1329.93        80.00
1330.46        80.50
1330.87        80.00
1331.41        80.50
1331.94        80.50
1332.49        80.50
1332.89        80.50
1333.42        80.50
1333.96        80.50
1334.37        80.50
1334.92        80.50
1335.45        80.50
1336.00        80.50
1336.40        80.50
1336.93        80.50
1337.48        80.50
1337.87        80.50
1338.42        80.50
1338.95        80.50
1339.48        80.50
1339.89        80.50
1340.43        80.50
1340.97        80.50
1341.37        80.50
1341.91        80.50
1342.44        80.50
1342.99        80.50
1343.40        80.50
1343.94        80.50
1344.47        80.50
1344.87        80.50
1345.42        80.50
1345.96        80.50
1346.50        80.50
1346.90        80.50
1347.44        80.50
1347.97        80.50
1348.37        80.50
1348.92        80.50
1349.46        80.50
1349.98        80.50
1350.40        80.50
1350.94        81.00
1351.48        80.50
1351.88        81.00
1352.42        80.50
1352.95        81.00
1353.50        81.00
1353.90        81.00
1354.45        81.00
1354.97        81.00
1355.37        81.00
1355.92        81.00
1356.45        81.00
1356.85        81.00
1357.39        81.00
1357.94        81.00
1358.49        81.00
1358.88        81.00
1359.43        81.00
1359.95        81.00
1360.35        81.00
1360.90        81.00
1361.44        81.00
1361.97        81.00
1362.37        81.00
1362.92        81.00
1363.47        81.00
1363.86        81.00
1364.40        81.00
1364.94        81.00
1365.48        81.00
1365.88        81.00
1366.43        81.00
1366.95        81.00
1367.36        81.00
1367.90        81.00
1368.45        81.00
1368.97        81.00
1369.39        81.00
1369.91        81.00
1370.46        81.00
1370.86        81.00
1371.41        81.00
1371.95        81.00
1372.47        81.00
1372.90        81.00
1373.42        81.00
1373.96        81.00
1374.37        81.50
1374.91        81.50
1375.45        81.00
1375.99        81.00
1376.39        81.50
1376.93        81.50
1377.46        81.50
1377.87        81.50
1378.41        81.50
1378.93        81.50
1379.48        81.50
1379.89        81.50
1380.43        81.50
1380.97        81.50
1381.37        81.50
1381.91        81.50
1382.45        81.50
1382.99        81.50
1383.38        81.50
1383.93        81.50
1384.45        81.50
1384.88        81.50
1385.40        81.50
1385.94        81.50
1386.35        81.50
1386.89        81.50
1387.44        81.50
1387.96        81.50
1388.38        81.50
1388.91        81.50
1389.45        81.50
1389.86        81.50
1390.40        81.50
1390.94        81.50
1391.46        81.50
1391.88        81.50
1392.42        81.50
1392.96        81.50
1393.35        81.50
1393.90        81.50
1394.42        81.50
1394.96        81.50
1395.39        81.50
1395.91        81.50
1396.45        81.50
1396.85        81.50
1397.39        81.50
1397.93        81.50
1398.48        81.50
1398.88        81.50
1399.41        81.50
1399.96        81.50
1400.36        81.50
1400.90        81.50
1401.42        81.50
1401.97        81.50
1402.37        81.50
1402.92        81.50
1403.46        81.50
1403.86        81.50
1404.39        81.50
1404.94        82.00
1405.46        82.00
1405.88        82.00
1406.43        82.00
1406.95        82.00
1407.35        82.00
1407.90        82.00
1408.44        82.00
1408.98        82.00
1409.38        82.00
1409.91        82.00
1410.45        82.00
1410.85        82.00
1411.39        82.00
1411.94        82.00
1412.48        82.00
1412.88        82.00
1413.42        82.00
1413.96        82.00
1414.36        82.00
1414.90        82.00
1415.45        82.00
1415.85        82.00
1416.37        82.00
1416.92        82.00
1417.46        82.00
1417.86        82.00
1418.41        82.00
1418.93        82.00
1419.35        82.00
1419.88        82.00
1420.42        82.00
1420.96        82.00
1421.36        82.00
1421.90        82.00
1422.45        82.00
1422.84        82.00
1423.38        82.00
1423.92        82.00
1424.47        82.00
1424.87        82.00
1425.39        82.00
1425.94        82.00
1426.35        82.00
1426.89        82.00
1427.43        82.00
1427.95        82.00
1428.37        82.00
1428.90        82.00
1429.44        82.00
1429.84        82.00
1430.38        82.00
1430.93        82.00
1431.47        82.00
1431.87        82.00
1432.41        82.00
1432.94        82.00
1433.34        82.00
1433.88        82.00
1434.43        82.00
1434.97        82.00
1435.37        82.00
1435.91        82.00
1436.45        82.00
1436.85        82.00
1437.39        82.00
1437.94        82.00
1438.47        82.00
1438.85        82.00
1439.39        82.00
1439.93        82.00
1440.46        82.00
1440.88        82.00
1441.40        82.00
1441.95        82.00
1442.35        82.00
1442.89        82.00
1443.44        82.00
1443.84        82.50
1444.39        82.00
1444.93        82.00
1445.47        82.00
1445.87        82.00
1446.41        82.00
1446.95        82.00
1447.36        82.00
1447.89        82.50
1448.43        82.00
1448.84        82.00
1449.38        82.50
1449.92        82.50
1450.47        82.50
1450.87        82.00
1451.41        82.50
1451.94        82.50
1452.34        82.50
1452.89        82.50
1453.43        82.50
1453.84        82.50
1454.37        82.50
1454.91        82.50
1455.45        82.50
1455.85        82.50
1456.40        82.50
1456.95        82.50
1457.34        82.50
1457.88        82.50
1458.43        82.50
1458.83        82.50
1459.37        82.50
1459.91        82.50
1460.46        82.50
1460.85        82.50
1461.40        82.50
1461.95        82.50
1462.34        82.50
1462.89        82.50
1463.43        82.50
1463.83        82.50
1464.37        82.50
1464.92        82.50
1465.46        82.50
1465.85        82.50
1466.40        82.50
1466.93        82.50
1467.33        82.50
1467.87        82.50
1468.42        82.50
1468.95        82.50
1469.35        82.50
1469.89        82.50
1470.44        82.50
1470.84        82.50
1471.38        82.50
1471.91        82.50
1472.46        82.50
1472.85        82.50
1473.40        82.50
1473.93        82.50
1474.34        82.50
1474.89        82.50
1475.41        82.50
1475.95        82.50
1476.35        82.50
1476.90        82.50
1477.44        82.50
1477.83        82.50
1478.38        82.50
1478.92        82.50
1479.47        82.50
1479.86        82.50
1480.40        82.50
1480.93        82.50
1481.34        82.50
1481.88        82.50
1482.43        82.50
1482.83        82.50
1483.36        82.50
1483.91        82.50
1484.44        82.50
1484.84        82.50
1485.38        82.50
1485.91        82.50
1486.31        82.50
1486.86        82.50
1487.40        82.50
1487.94        82.50
1488.34        82.50
1488.88        82.50
1489.42        82.50
1489.82        82.50
1490.36        82.50
1490.91        82.50
1491.43        82.50
1491.83        82.50
1492.39        82.50
1492.93        82.50
1493.32        82.50
1493.86        82.50
1494.40        82.50
1494.95        82.50
1495.34        82.50
1495.88        82.50
1496.42        82.50
1496.83        82.50
1497.37        82.50
1497.91        82.50
1498.45        82.50
1498.85        82.50
1499.39        82.50
1499.93        82.50
1500.34        82.50
1500.86        82.50
1501.41        82.50
1501.95        82.50
1502.35        82.50
1502.89        82.50
1503.44        82.50
1503.83        82.50
1504.37        82.50
1504.91        82.50
1505.45        82.50
1505.85        82.50
1506.39        82.50
1506.94        82.50
1507.33        82.50
1507.87        82.50
1508.42        82.50
1508.82        82.50
1509.36        82.50
1509.89        82.50
1510.44        82.50
1510.83        82.50
1511.37        82.50
1511.90        82.50
1512.33        82.50
1512.86        82.50
1513.40        82.50
1513.93        82.50
1514.33        82.50
1514.87        82.50
1515.40        82.50
1515.81        82.50
1516.35        82.50
1516.90        82.50
1517.43        82.50
1517.83        82.50
1518.38        82.50
1518.92        82.50
1519.32        82.50
1519.86        82.50
1520.39        82.50
1520.94        82.50
1521.33        82.50
1521.88        82.50
1522.41        82.50
1522.82        82.50
1523.35        82.50
1523.91        82.50
1524.44        82.50
1524.83        82.50
1525.38        82.50
1525.92        82.50
1526.32        82.50
1526.86        82.50
1527.40        82.50
1527.94        82.50
1528.33        82.50
1528.88        82.50
1529.42        82.50
1529.82        82.50
1530.37        82.50
1530.90        82.50
1531.43        82.50
1531.83        82.50
1532.39        82.50
1532.92        82.50
1533.32        82.50
1533.86        82.50
1534.39        82.50
1534.94        82.50
1535.34        82.50
1535.89        82.50
1536.42        82.50
1536.82        82.50
1537.36        82.50
1537.90        82.50
1538.31        82.50
1538.84        82.50
1539.38        82.50
1539.92        82.50
1540.32        82.50
1540.86        82.50
1541.40        82.50
1541.80        82.50
1542.34        82.50
1542.88        82.50
1543.43        82.50
1543.82        82.50
1544.36        82.50
1544.90        82.50
1545.30        82.50
1545.86        82.50
1546.39        82.50
1546.93        82.50
1547.33        82.50
1547.87        82.50
1548.40        82.50
1548.81        82.50
1549.35        82.50
1549.88        82.50
1550.42        82.50
1550.82        82.50
1551.38        82.50
1551.91        82.50
1552.30        82.50
1552.85        82.50
1553.39        82.50
1553.91        82.50
1554.32        82.50
1554.86        82.50
1555.41        82.50
1555.81        82.50
1556.33        82.50
1556.88        82.50
1557.41        82.50
1557.81        82.50
1558.36        82.50
1558.90        82.50
1559.29        82.50
1559.84        82.50
1560.38        82.50
1560.92        82.50
1561.32        82.50
1561.86        82.50
1562.41        82.50
1562.80        82.50
1563.35        82.50
1563.89        82.50
1564.43        82.50
1564.84        82.50
1565.38        82.50
1565.91        82.50
1566.33        82.50
1566.85        82.50
1567.40        82.50
1567.93        82.50
1568.33        82.50
1568.87        82.50
1569.40        82.50
1569.80        82.50
1570.35        82.50
1570.90        82.50
1571.30        82.50
1571.84        82.50
1572.38        82.50
1572.93        82.50
1573.32        82.50
1573.87        82.50
1574.41        82.50
1574.82        82.50
1575.35        82.50
1575.89        82.50
1576.29        82.50
1576.83        82.50
1577.37        82.50
1577.92        82.50
1578.32        82.50
1578.87        82.50
1579.40        82.50
1579.82        82.50
1580.35        82.50
1580.89        82.50
1581.29        82.50
1581.84        82.50
1582.38        82.50
1582.92        82.50
1583.32        82.50
1583.85        82.50
1584.41        82.50
1584.80        82.50
1585.35        82.50
1585.89        82.50
1586.30        82.50
1586.84        82.50
1587.37        82.50
1587.92        82.50
1588.32        82.50
1588.85        82.50
1589.37        82.50
1589.92        82.50
1590.32        82.50
1590.86        82.50
1591.39        82.50
1591.80        82.50
1592.35        82.50
1592.89        82.50
1593.30        82.50
1593.83        82.50
1594.37        82.50
1594.92        82.50
1595.31        82.50
1595.86        82.50
1596.41        82.50
1596.80        82.50
1597.34        82.50
1597.88        82.50
1598.29        82.50
1598.82        82.50
1599.37        82.50
1599.91        82.50
1600.31        82.50
1600.86        82.50
1601.39        82.50
1601.81        82.50
1602.34        82.50
1602.87        82.50
1603.28        82.50
1603.83        82.50
1604.36        82.50
1604.91        82.50
1605.30        82.50
1605.86        82.50
1606.40        82.50
1606.79        82.50
1607.34        82.50
1607.88        82.50
1608.28        82.50
1608.82        82.50
1609.36        82.50
1609.91        82.50
1610.31        82.50
1610.84        82.50
1611.38        82.50
1611.80        82.50
1612.34        82.50
1612.87        82.50
1613.42        82.50
1613.83        82.50
1614.35        82.50
1614.90        82.50
1615.31        82.50
1615.83        82.50
1616.37        82.50
1616.78        82.50
1617.32        82.50
1617.86        82.50
1618.39        82.50
1618.81        82.50
1619.35        82.50
1619.89        82.50
1620.28        82.50
1620.82        82.50
1621.36        82.50
1621.90        82.50
1622.30        82.50
1622.84        82.50
1623.38        82.50
1623.78        82.50
1624.33        82.50
1624.87        82.50
1625.41        82.50
1625.82        82.50
1626.35        82.50
1626.89        82.50
1627.28        82.50
1627.83        82.50
1628.37        82.50
1628.91        82.50
1629.31        82.50
1629.86        82.50
1630.39        82.50
1630.78        82.50
1631.32        82.50
1631.87        82.50
1632.42        82.50
1632.81        82.50
1633.35        82.50
1633.89        82.50
1634.30        82.50
1634.84        82.50
1635.37        82.50
1635.91        82.50
1636.31        82.50
1636.85        82.50
1637.39        82.50
1637.79        82.50
1638.33        82.50
1638.87        82.50
1639.27        82.50
1639.82        82.50
1640.35        82.50
1640.90        82.50
1641.30        82.50
1641.84        82.50
1642.38        82.50
1642.78        82.50
1643.31        82.50
1643.84        82.50
1644.39        82.50
1644.79        82.50
1645.34        82.50
1645.88        82.50
1646.28        82.50
1646.82        82.50
1647.36        82.50
1647.89        82.50
1648.29        82.50
1648.84        82.50
1649.38        82.00
1649.78        82.00
1650.32        82.00
1650.85        82.50
1651.40        82.00
1651.80        82.00
1652.34        82.50
1652.88        82.00
1653.28        82.50
1653.82        82.00
1654.36        82.00
1654.89        82.00
1655.30        82.00
1655.84        82.00
1656.39        82.00
1656.78        82.00
1657.32        82.00
1657.87        82.00
1658.40        82.00
1658.81        82.00
1659.34        82.00
1659.89        82.00
1660.28        82.00
1660.82        82.00
1661.37        82.00
1661.90        82.00
1662.31        82.00
1662.84        82.00
1663.38        82.00
1663.78        82.00
1664.32        82.00
1664.86        82.00
1665.40        82.00
1665.80        82.00
1666.34        82.00
1666.88        82.00
1667.30        82.00
1667.81        82.00
1668.36        82.00
1668.77        82.00
1669.31        82.00
1669.85        82.00
1670.38        82.00
1670.80        82.00
1671.33        82.00
1671.87        82.00
1672.26        82.00
1672.81        82.00
1673.37        82.00
1673.90        82.00
1674.30        82.00
1674.84        82.00
1675.39        82.00
1675.78        82.00
1676.34        82.00
1676.86        82.00
1677.28        82.00
1677.81        82.00
1678.35        82.00
1678.88        82.00
1679.30        82.00
1679.84        82.00
1680.39        82.00
1680.78        82.00
1681.32        82.00
1681.87        82.00
1682.28        82.00
1682.81        82.00
1683.35        82.00
1683.90        82.00
1684.29        82.00
1684.84        82.00
1685.38        82.00
1685.79        82.00
1686.33        82.00
1686.86        82.00
1687.26        82.00
1687.81        82.00
1688.35        82.00
1688.89        82.00
1689.30        82.00
1689.84        82.00
1690.37        82.00
1690.78        82.00
1691.32        82.00
1691.86        82.00
1692.27        82.00
1692.81        82.00
1693.34        82.00
1693.89        82.00
1694.28        82.00
1694.82        82.00
1695.38        82.00
1695.77        82.00
1696.32        82.00
1696.86        82.00
1697.25        82.00
1697.79        82.00
1698.34        82.00
1698.86        82.00
1699.28        82.00
1699.82        82.00
1700.35        82.00
1700.76        82.00
1701.29        82.00
1701.84        82.00
1702.38        82.00
1702.78        82.00
1703.33        82.00
1703.85        82.00
1704.25        82.00
1704.80        82.00
1705.34        82.00
1705.87        82.00
1706.28        82.00
1706.82        82.00
1707.37        82.00
1707.76        82.00
1708.31        82.00
1708.85        82.00
1709.39        82.00
1709.79        82.00
1710.33        82.00
1710.85        82.00
1711.26        82.00
1711.80        82.00
1712.35        82.00
1712.88        82.00
1713.28        82.00
1713.83        82.00
1714.37        82.00
1714.77        82.00
1715.31        82.00
1715.85        82.00
1716.39        82.00
1716.79        82.00
1717.33        82.00
1717.86        82.00
1718.26        82.00
1718.81        82.00
1719.35        82.00
1719.75        82.00
1720.29        82.00
1720.83        82.00
1721.37        81.50
1721.76        82.00
1722.31        81.50
1722.85        82.00
1723.24        82.00
1723.79        81.50
1724.33        82.00
1724.87        81.50
1725.28        82.00
1725.81        81.50
1726.35        81.50
1726.75        81.50
1727.29        81.50
1727.83        81.50
1728.38        82.00
1728.78        81.50
1729.32        81.50
1729.84        81.50
1730.25        81.50
1730.79        81.50
1731.33        81.50
1731.86        81.50
1732.28        81.50
1732.80        81.50
1733.35        81.50
1733.75        81.50
1734.30        81.50
1734.84        81.50
1735.36        81.50
1735.78        81.50
1736.31        81.50
1736.85        81.50
1737.25        81.50
1737.80        81.50
1738.34        81.50
1738.86        81.50
1739.28        81.50
1739.81        81.50
1740.35        81.50
1740.76        81.50
1741.29        81.50
1741.83        81.50
1742.38        81.50
1742.77        81.50
1743.31        81.50
1743.86        81.50
1744.26        81.50
1744.80        81.50
1745.33        81.50
1745.87        81.50
1746.27        81.50
1746.82        81.50
1747.36        81.50
1747.76        81.50
1748.31        81.50
1748.83        81.50
1749.25        81.50
1749.77        81.50
1750.32        81.50
1750.86        81.50
1751.26        81.50
1751.81        81.50
1752.35        81.50
1752.75        81.50
1753.29        81.50
1753.81        81.50
1754.36        81.50
1754.76        81.50
1755.30        81.50
1755.85        81.50
1756.24        81.50
1756.78        81.50
1757.33        81.50
1757.85        81.50
1758.25        81.50
1758.79        81.50
1759.34        81.50
1759.74        81.50
1760.28        81.50
1760.83        81.50
1761.37        81.50
1761.77        81.50
1762.30        81.50
1762.84        81.50
1763.24        81.50
1763.79        81.50
1764.33        81.50
1764.86        81.50
1765.27        81.50
1765.80        81.50
1766.34        81.50
1766.74        81.50
1767.29        81.50
1767.83        81.50
1768.35        81.50
1768.77        81.50
1769.32        81.50
1769.84        81.00
1770.26        81.50
1770.78        81.50
1771.32        81.50
1771.87        81.50
1772.27        81.50
1772.82        81.50
1773.34        81.50
1773.76        81.50
1774.28        81.50
1774.82        81.00
1775.37        81.00
1775.77        81.50
1776.32        81.50
1776.85        81.50
1777.26        81.00
1777.79        81.50
1778.32        81.00
1778.73        81.50
1779.27        81.50
1779.82        81.50
1780.34        81.50
1780.75        81.50
1781.29        81.50
1781.83        81.50
1782.23        81.00
1782.78        81.50
1783.32        81.50
1783.84        81.00
1784.26        81.00
1784.80        81.50
1785.33        81.00
1785.73        81.00
1786.27        81.00
1786.82        81.00
1787.34        81.00
1787.76        81.00
1788.28        81.00
1788.82        81.00
1789.25        81.00
1789.77        81.00
1790.32        81.00
1790.85        81.00
1791.27        81.00
1791.80      -127.00
1792.34        81.00
1792.73        81.00
1793.29        81.00
1793.82        81.00
1794.36        81.00
1794.76        81.00
1795.30        81.00
1795.84        81.00
1796.25        81.00
1796.79        81.00
1797.34        81.00
1797.73        81.00
1798.29        81.00
1798.82        81.00
1799.36        81.00
1799.75        81.00
1800.30        81.00
1800.85        81.00
1801.24        81.00
1801.79        81.00
1802.32        81.00
1802.74        81.00
1803.28        81.00
1803.81        81.00
1804.36        81.00
1804.76        81.00
1805.30        81.00
1805.85        81.00
1806.24        81.00
1806.78        81.00
1807.32        81.00
1807.72        81.00
1808.26        81.00
1808.82        81.00
1809.35        81.00
1809.75        81.00
1810.31        81.00
1810.84        81.00
1811.25        81.00
1811.78        81.00
1812.33        81.00
1812.73        81.00
1813.26        81.00
1813.81        81.00
1814.36        81.00
1814.75        81.00
1815.30        81.00
1815.83        81.00
1816.25        81.00
1816.79        81.00
1817.32        81.00
1817.72        81.00
1818.27        81.00
1818.81        81.00
1819.36        81.00
1819.75        81.00
1820.30        81.00
1820.84        81.00
1821.23        81.00
1821.78        81.00
1822.32        81.00
1822.72        81.00
1823.26        80.50
1823.81        81.00
1824.34        81.00
1824.74        81.00
1825.29        81.00
1825.84        81.00
1826.23        81.00
1826.78        81.00
1827.32        81.00
1827.73        81.00
1828.26        81.00
1828.81        81.00
1829.34        81.00
1829.74        81.00
1830.29        81.00
1830.83        81.00
1831.23        81.00
1831.78        81.00
1832.32        80.50
1832.73        80.50
1833.26        81.00
1833.79        80.50
1834.34        80.50
1834.74        80.50
1835.29        81.00
1835.82        80.50
1836.23        81.00
1836.76        80.50
1837.31        80.50
1837.85        80.50
1838.26        80.50
1838.80        80.50
1839.32        80.50
1839.73        80.50
1840.27        80.50
1840.82        80.50
1841.23        80.50
1841.76        80.50
1842.31        80.50
1842.85        80.50
1843.25        80.50
1843.80        80.50
1844.33        80.50
1844.73        80.50
1845.28        80.50
1845.80        80.50
1846.21        80.50
1846.75        80.50
1847.30        80.50
1847.82        80.50
1848.23        80.50
1848.78        80.50
1849.30        80.50
1849.72        80.50
1850.26        80.50
1850.79        80.50
1851.33        80.50
1851.73        80.50
1852.28        80.50
1852.82        80.50
1853.21        80.50
1853.77        80.50
1854.29        80.50
1854.84        80.50
1855.24        80.50
1855.78        80.50
1856.32        80.50
1856.72        80.50
1857.25        80.50
1857.80        80.50
1858.34        80.50
1858.74        80.50
1859.29        80.50
1859.82        80.50
1860.23        80.50
1860.77        80.50
1861.31        80.50
1861.84        80.50
1862.25        80.50
1862.78        80.50
1863.31        80.50
1863.72        80.50
1864.27        80.50
1864.79        80.50
1865.34        80.50
1865.75        80.50
1866.27        80.50
1866.83        80.50
1867.22        80.50
1867.77        80.50
1868.29        80.50
1868.70        80.50
1869.25        80.50
1869.78        80.50
1870.33        80.50
1870.72        80.50
1871.27        80.50
1871.79        80.50
1872.21        80.50
1872.75        80.50
1873.29        80.50
1873.83        80.50
1874.22        80.50
1874.76        80.50
1875.30        80.50
1875.71        80.50
1876.24        80.50
1876.78        80.50
1877.32        80.00
1877.73        80.50
1878.27        80.00
1878.79        80.00
1879.22        80.00
1879.74        80.00
1880.30        80.50
1880.83        80.50
1881.23        80.00
1881.76        80.00
1882.31        80.00
1882.72        80.00
1883.25        80.00
1883.79        80.00
1884.30        80.00
1884.72        80.00
1885.26        80.00
1885.80        80.00
1886.19        80.00
1886.74        80.00
1887.28        80.00
1887.82        80.00
1888.22        80.00
1888.76        80.00
1889.31        80.00
1889.71        80.00
1890.25        80.00
1890.80        80.00
1891.32        80.00
1891.75        80.00
1892.28        80.00
1892.82        80.00
1893.22        80.00
1893.77        80.00
1894.30        80.00
1894.71        80.00
1895.25        80.00
1895.79        80.00
1896.33        80.00
1896.73        80.00
1897.27        80.00
1897.81        80.00
1898.22        80.00
1898.76        80.00
1899.30        80.00
1899.70        80.00
1900.25        80.00
1900.79        80.00
1901.32        80.00
1901.73        80.00
1902.28        80.00
1902.81        80.00
1903.21        80.00
1903.76        80.00
1904.29        80.00
1904.69        80.00
1905.24        80.00
1905.79        80.00
1906.32        80.00
1906.74        80.00
1907.27        80.00
1907.81        80.00
1908.21        80.00
1908.76        80.00
1909.28        80.00
1909.71        80.00
1910.24        80.00
1910.77        80.00
1911.31        80.00
1911.72        80.00
1912.26        80.00
1912.80        80.00
1913.22        80.00
1913.75        80.00
1914.29        80.00
1914.83        80.00
1915.22        80.00
1915.77        80.00
1916.31        80.00
1916.71        80.00
1917.25        80.00
1917.80        80.00
1918.19        80.00
1918.73        80.00
1919.28        80.00
1919.80        80.00
1920.21        80.00
1920.74        80.00
1921.29        80.00
1921.70        80.00
1922.24        79.50
1922.78        80.00
1923.31        80.00
1923.72        79.50
1924.26        80.00
1924.80        79.50
1925.20        79.50
1925.74        79.50
1926.28        79.50
1926.81        79.50
1927.22        79.50
1927.74        79.50
1928.29      -127.00
1928.70        79.50
1929.24        79.50
1929.79        79.50
1930.33        79.50
1930.72        79.50
1931.26        79.50
1931.79        79.50
1932.20        79.50
1932.75        79.50
1933.30        79.50
1933.69        79.50
1934.23        79.50
1934.78        79.50
1935.32        79.50
1935.71        79.50
1936.25        79.50
1936.81        79.50
1937.21        79.50
1937.75        79.50
1938.29        79.50
1938.70        79.50
1939.23        79.50
1939.78        79.50
1940.32        79.50
1940.72        79.50
1941.26        79.50
1941.79        79.50
1942.21        79.50
1942.74        79.50
1943.28        79.50
1943.68        79.50
1944.23        79.50
1944.76        79.50
1945.31        79.50
1945.72        79.50
1946.25        79.50
1946.79        79.50
1947.20        79.50
1947.75        79.50
1948.27        79.50
1948.68        79.50
1949.23        79.50
1949.77        79.50
1950.30        79.50
1950.70        79.50
1951.25        79.50
1951.80        79.50
1952.19        79.50
1952.74        79.50
1953.28        79.50
1953.68        79.50
1954.23        79.50
1954.77        79.50
1955.31        79.50
1955.72        79.50
1956.25        79.50
1956.79        79.50
1957.20        79.50
1957.74        79.50
1958.26        79.50
1958.81        79.50
1959.21        79.50
1959.74        79.50
1960.28        79.50
1960.69        79.50
1961.23        79.50
1961.78        79.50
1962.17        79.50
1962.71        79.50
1963.26        79.50
1963.80        79.00
1964.20        79.50
1964.73        79.50
1965.28        79.50
1965.68        79.50
1966.23        79.50
1966.77        79.50
1967.31        79.00
1967.70        79.00
1968.25        79.00
1968.78        79.00
1969.18        79.00
1969.71        79.00
1970.25        79.00
1970.79        79.00
1971.20        79.00
1971.74        79.00
1972.29        79.00
1972.69        79.00
1973.23        79.00
1973.77        79.00
1974.29        79.00
1974.70        79.00
1975.25        79.00
1975.78        79.00
1976.19        79.00
1976.73        79.00
1977.25        79.00
1977.79        79.00
1978.20        79.00
1978.75        79.00
1979.28        79.00
1979.68        79.00
1980.23        79.00
1980.76        79.00
1981.31        79.00
1981.71        79.00
1982.24        79.00
1982.79        79.00
1983.18        79.00
1983.72        79.00
1984.26        79.00
1984.81        79.00
1985.21        79.00
1985.75        79.00
1986.28        79.00
1986.69        79.00
1987.23        79.00
1987.76        79.00
1988.17        79.00
1988.71        79.00
1989.24        79.00
1989.78        79.00
1990.19        79.00
1990.73        79.00
1991.27        79.00
1991.66        79.00
1992.20        79.00
1992.74        79.00
1993.29        79.00
1993.70        79.00
1994.23        79.00
1994.77        79.00
1995.17        79.00
1995.71        79.00
1996.24        79.00
1996.78        79.00
1997.18        79.00
1997.73        79.00
1998.28        79.00
1998.66        79.00
1999.20        79.00
1999.75        79.00
2000.29        79.00
2000.70        79.00
2001.23        79.00
2001.77        79.00
2002.18        79.00
2002.72        79.00
2003.25        79.00
2003.79        79.00
2004.20        79.00
2004.74        79.00
2005.27        79.00
2005.68        79.00
2006.21        79.00
2006.76        79.00
2007.29        79.00
2007.69        79.00
2008.24        79.00
2008.78        78.50
2009.18        79.00
2009.71        79.00
2010.25        78.50
2010.80        78.50
2011.19        79.00
2011.73        78.50
2012.28        78.50
2012.68        79.00
2013.22        78.50
2013.76        78.50
2014.28        78.50
2014.70        78.50
2015.24        78.50
2015.77        78.50
2016.18        78.50
2016.72        78.50
2017.25        78.50
2017.79        78.50
2018.20        78.50
2018.75        78.50
2019.28        78.50
2019.68        78.50
2020.22        78.50
2020.76        78.50
2021.17        78.50
2021.69        78.50
2022.25        78.50
2022.77        78.50
2023.18        78.50
2023.72        78.50
2024.26        78.50
2024.66        78.50
2025.21        78.50
2025.75        78.50
2026.27        78.50
2026.68        78.50
2027.23        78.50
2027.76        78.50
2028.17        78.50
2028.70        78.50
2029.24        78.50
2029.77        78.50
2030.17        78.50
2030.72        78.50
2031.27        78.50
2031.67        78.50
2032.21        78.50
2032.74        78.50
2033.28        78.50
2033.68        78.50
2034.23        78.50
2034.76        78.50
2035.16        78.50
2035.70        78.50
2036.25        78.50
2036.77        78.50
2037.19        78.50
2037.73        78.50
2038.25        78.50
2038.67        78.50
2039.21        78.50
2039.75        78.50
2040.28        78.50
2040.68        78.50
2041.22        78.50
2041.76        78.50
2042.16        78.50
2042.71        78.50
2043.25        78.50
2043.79        78.50
2044.19        78.50
2044.73        78.50
2045.27        78.50
2045.67        78.50
2046.20        78.50
2046.74        78.50
2047.16        78.50
2047.68        78.50
2048.23        78.50
2048.77        78.50
2049.17        78.50
2049.70        78.50
2050.24        78.50
2050.64        78.50
2051.19        78.50
2051.73        78.50
2052.27        78.50
2052.66        78.50
2053.20        78.50
2053.74        78.50
2054.29        78.50
2054.68        78.50
2055.22        78.00
2055.77        78.50
2056.16        78.00
2056.71        78.50
2057.25        78.00
2057.65        78.00
2058.19        78.00
2058.74        78.00
2059.28        78.00
2059.69        78.00
2060.23        78.00
2060.77        78.00
2061.17        78.00
2061.71        78.00
2062.25        78.00
2062.65        78.00
2063.20        78.00
2063.72        78.00
2064.27        78.00
2064.69        78.00
2065.23        78.00
2065.77        78.00
2066.17        78.00
2066.70        78.00
2067.24        78.00
2067.77        78.00
2068.17        78.00
2068.71        78.00
2069.25        78.00
2069.65        78.00
2070.20        78.00
2070.74        78.00
2071.27        78.00
2071.69        78.00
2072.23        78.00
2072.77        78.00
2073.17        78.00
2073.70        78.00
2074.24        78.00
2074.64        78.00
2075.19        78.00
2075.72        78.00
2076.27        78.00
2076.67        78.00
2077.21        78.00
2077.76        78.00
2078.16        78.00
2078.70        78.00
2079.25        78.00
2079.65        78.00
2080.19        78.00
2080.73        78.00
2081.26        78.00
2081.68        78.00
2082.22        78.00
2082.76        78.00
2083.15        78.00
2083.69        78.00
2084.23        78.00
2084.65        78.00
2085.20        78.00
2085.72        78.00
2086.26        78.00
2086.67        78.00
2087.21        78.00
2087.76        78.00
2088.16        78.00
2088.70        78.00
2089.24        78.00
2089.64        78.00
2090.19        78.00
2090.73        78.00
2091.27        78.00
2091.67        78.00
2092.21        78.00
2092.76        78.00
2093.16        78.00
2093.69        78.00
2094.24        78.00
2094.64        78.00
2095.19        78.00
2095.72        78.00
2096.26        77.50
2096.66        78.00
2097.20        78.00
2097.74        77.50
2098.15        78.00
2098.69        77.50
2099.23        77.50
2099.64        78.00
2100.18        77.50
2100.72        77.50
2101.26        77.50
2101.66        78.00
2102.20        77.50
2102.75        77.50
2103.15        77.50
2103.69        77.50
2104.23        77.50
2104.63        77.50
2105.18        77.50
